"Time.sec.","Intensity"
0,525.317
2,525.317
4,525.317
6,524.925
8,524.532
10,524.14
12,524.063
14,523.985
16,523.908
18,524.019
20,524.13
22,524.241
24,524.267
26,524.292
28,524.318
30,524.275
32,524.233
34,524.19
36,523.938
38,523.685
40,523.433
42,523.056
44,522.678
46,522.301
48,522.291
50,522.28
52,522.27
54,522.084
56,521.897
58,521.711
60,521.911
62,522.11
64,522.31
66,522.145
68,521.98
70,521.815
72,521.933
74,522.052
76,522.17
78,521.723
80,521.276
82,520.829
84,520.81
86,520.79
88,520.771
90,520.549
92,520.327
94,520.105
96,520.137
98,520.169
100,520.201
102,520.251
104,520.301
106,520.351
108,520.178
110,520.005
112,519.832
114,519.942
116,520.051
118,520.161
120,520.135
122,520.109
124,520.083
126,519.654
128,519.225
130,518.796
132,518.726
134,518.656
136,518.586
138,518.973
140,519.36
142,519.747
144,519.154
146,518.562
148,517.969
150,517.818
152,517.666
154,517.515
156,517.998
158,518.48
160,518.963
162,518.454
164,517.946
166,517.437
168,517.491
170,517.544
172,517.598
174,517.691
176,517.785
178,517.878
180,517.557
182,517.235
184,516.914
186,516.825
188,516.735
190,516.646
192,516.741
194,516.835
196,516.93
198,516.778
200,516.627
202,516.475
204,516.461
206,516.447
208,516.433
210,516.555
212,516.677
214,516.799
216,516.385
218,515.971
220,515.557
222,515.768
224,515.978
226,516.189
228,515.794
230,515.398
232,515.003
234,515.103
236,515.204
238,515.304
240,514.965
242,514.625
244,514.286
246,514.332
248,514.378
250,514.424
252,514.174
254,513.924
256,513.674
258,513.625
260,513.576
262,513.527
264,513.658
266,513.789
268,513.92
270,513.857
272,513.794
274,513.731
276,513.374
278,513.017
280,512.66
282,512.755
284,512.85
286,512.945
288,512.951
290,512.956
292,512.962
294,512.896
296,512.831
298,512.765
300,512.664
302,512.563
304,512.462
306,512.651
308,512.84
310,513.029
312,512.797
314,512.566
316,512.334
318,512.147
320,511.96
322,511.773
324,511.833
326,511.892
328,511.952
330,511.947
332,511.942
334,511.937
336,511.85
338,511.762
340,511.675
342,511.602
344,511.53
346,511.457
348,511.581
350,511.706
352,511.83
354,511.308
356,510.787
358,510.265
360,510.279
362,510.294
364,510.308
366,510.353
368,510.397
370,510.442
372,510.208
374,509.973
376,509.739
378,509.448
380,509.158
382,508.867
384,509.103
386,509.339
388,509.575
390,509.369
392,509.164
394,508.958
396,509.101
398,509.245
400,509.388
402,509.055
404,508.722
406,508.389
408,508.293
410,508.198
412,508.102
414,508.077
416,508.051
418,508.026
420,508.091
422,508.157
424,508.222
426,508.138
428,508.053
430,507.969
432,507.891
434,507.814
436,507.736
438,507.698
440,507.659
442,507.621
444,507.645
446,507.668
448,507.692
450,507.489
452,507.287
454,507.084
456,506.896
458,506.709
460,506.521
462,506.529
464,506.537
466,506.545
468,506.836
470,507.126
472,507.417
474,507.282
476,507.147
478,507.012
480,506.714
482,506.417
484,506.119
486,506.296
488,506.473
490,506.65
492,506.279
494,505.907
496,505.536
498,505.622
500,505.709
502,505.795
504,505.702
506,505.608
508,505.515
510,505.523
512,505.53
514,505.538
516,505.146
518,504.755
520,504.363
522,504.499
524,504.636
526,504.772
528,504.593
530,504.414
532,504.235
534,504.466
536,504.696
538,504.927
540,504.483
542,504.039
544,503.595
546,503.803
548,504.01
550,504.218
552,504.236
554,504.253
556,504.271
558,503.847
560,503.422
562,502.998
564,502.99
566,502.983
568,502.975
570,502.951
572,502.926
574,502.902
576,502.769
578,502.635
580,502.502
582,502.469
584,502.437
586,502.404
588,502.197
590,501.989
592,501.782
594,502.006
596,502.23
598,502.454
600,502.257
900,499.4
902,499.4
904,499.4
906,498.834
908,498.269
910,497.703
912,497.635
914,497.568
916,497.5
918,497.714
920,497.929
922,498.143
924,497.823
926,497.504
928,497.184
930,497.21
932,497.236
934,497.262
936,497.007
938,496.751
940,496.496
942,496.513
944,496.529
946,496.546
948,496.554
950,496.563
952,496.571
954,496.324
956,496.078
958,495.831
960,495.759
962,495.688
964,495.616
966,495.162
968,494.708
970,494.254
972,494.473
974,494.693
976,494.912
978,495.262
980,495.612
982,495.962
984,495.605
986,495.249
988,494.892
990,494.839
992,494.787
994,494.734
996,494.556
998,494.378
1000,494.2
1002,493.872
1004,493.545
1006,493.217
1008,493.283
1010,493.348
1012,493.414
1014,493.415
1016,493.416
1018,493.417
1020,493.698
1022,493.979
1024,494.26
1026,493.882
1028,493.503
1030,493.125
1032,492.929
1034,492.734
1036,492.538
1038,492.487
1040,492.437
1042,492.386
1044,492.478
1046,492.569
1048,492.661
1050,492.311
1052,491.96
1054,491.61
1056,491.65
1058,491.689
1060,491.729
1062,491.615
1064,491.5
1066,491.386
1068,491.288
1070,491.189
1072,491.091
1074,491.309
1076,491.526
1078,491.744
1080,491.598
1082,491.453
1084,491.307
1086,491.087
1088,490.867
1090,490.647
1092,490.66
1094,490.673
1096,490.686
1098,490.602
1100,490.518
1102,490.434
1104,490.339
1106,490.244
1108,490.149
1110,489.841
1112,489.533
1114,489.225
1116,489.391
1118,489.557
1120,489.723
1122,489.583
1124,489.443
1126,489.303
1128,489.191
1130,489.08
1132,488.968
1134,488.974
1136,488.981
1138,488.987
1140,488.769
1142,488.551
1144,488.333
1146,488.331
1148,488.33
1150,488.328
1152,488.303
1154,488.277
1156,488.252
1158,488.41
1160,488.568
1162,488.726
1164,488.678
1166,488.629
1168,488.581
1170,488.295
1172,488.01
1174,487.724
1176,487.582
1178,487.441
1180,487.299
1182,487.177
1184,487.054
1186,486.932
1188,487.011
1190,487.089
1192,487.168
1194,486.899
1196,486.629
1198,486.36
1200,486.219
1202,486.078
1204,485.937
1206,486.032
1208,486.128
1210,486.223
1212,486.498
1214,486.772
1216,487.047
1218,486.608
1220,486.168
1222,485.729
1224,485.772
1226,485.816
1228,485.859
1230,485.79
1232,485.72
1234,485.651
1236,485.683
1238,485.715
1240,485.747
1242,485.274
1244,484.802
1246,484.329
1248,484.786
1250,485.243
1252,485.7
1254,485.267
1256,484.833
1258,484.4
1260,484.452
1262,484.504
1264,484.556
1266,484.506
1268,484.455
1270,484.405
1272,484.108
1274,483.812
1276,483.515
1278,483.656
1280,483.797
1282,483.938
1284,483.926
1286,483.915
1288,483.903
1290,483.653
1292,483.403
1294,483.153
1296,483.259
1298,483.364
1300,483.47
1302,483.184
1304,482.897
1306,482.611
1308,482.61
1310,482.61
1312,482.609
1314,482.712
1316,482.815
1318,482.918
1320,482.451
1322,481.983
1324,481.516
1326,481.759
1328,482.002
1330,482.245
1332,482.164
1334,482.084
1336,482.003
1338,481.878
1340,481.752
1342,481.627
1344,481.582
1346,481.538
1348,481.493
1350,481.213
1352,480.932
1354,480.652
1356,480.873
1358,481.093
1360,481.314
1362,481.201
1364,481.087
1366,480.974
1368,480.809
1370,480.643
1372,480.478
1374,480.603
1376,480.728
1378,480.853
1380,480.748
1382,480.642
1384,480.537
1386,480.305
1388,480.074
1390,479.842
1392,479.794
1394,479.745
1396,479.697
1398,479.754
1400,479.811
1402,479.868
1404,479.673
1406,479.479
1408,479.284
1410,479.429
1412,479.573
1414,479.718
1416,479.529
1418,479.339
1420,479.15
1422,478.967
1424,478.784
1426,478.601
1428,478.686
1430,478.77
1432,478.855
1434,478.626
1436,478.396
1438,478.167
1440,478.226
1442,478.284
1444,478.343
1446,477.842
1448,477.34
1450,476.839
1452,477.154
1454,477.468
1456,477.783
1458,477.572
1460,477.36
1462,477.149
1464,477.134
1466,477.118
1468,477.103
1470,477.035
1472,476.967
1474,476.899
1476,476.507
1478,476.114
1480,475.722
1482,475.934
1484,476.146
1486,476.358
1488,476.459
1490,476.559
1492,476.66
1494,476.315
1496,475.971
1498,475.626
1500,475.792
1800,470.235
1802,470.235
1804,470.235
1806,470.711
1808,471.188
1810,471.664
1812,471.608
1814,471.552
1816,471.496
1818,471.325
1820,471.155
1822,470.984
1824,470.736
1826,470.487
1828,470.239
1830,470.467
1832,470.695
1834,470.923
1836,470.705
1838,470.487
1840,470.269
1842,470.159
1844,470.05
1846,469.94
1848,470.031
1850,470.122
1852,470.213
1854,470.075
1856,469.937
1858,469.799
1860,469.813
1862,469.826
1864,469.84
1866,469.647
1868,469.453
1870,469.26
1872,469.106
1874,468.952
1876,468.798
1878,468.716
1880,468.633
1882,468.551
1884,468.563
1886,468.574
1888,468.586
1890,468.677
1892,468.767
1894,468.858
1896,468.626
1898,468.395
1900,468.163
1902,468.182
1904,468.202
1906,468.221
1908,467.728
1910,467.234
1912,466.741
1914,467.023
1916,467.305
1918,467.587
1920,467.793
1922,467.999
1924,468.205
1926,467.71
1928,467.215
1930,466.72
1932,466.837
1934,466.954
1936,467.071
1938,467
1940,466.93
1942,466.859
1944,466.723
1946,466.587
1948,466.451
1950,466.012
1952,465.573
1954,465.134
1956,465.244
1958,465.355
1960,465.465
1962,465.665
1964,465.866
1966,466.066
1968,465.855
1970,465.643
1972,465.432
1974,465.466
1976,465.499
1978,465.533
1980,465.312
1982,465.09
1984,464.869
1986,464.904
1988,464.938
1990,464.973
1992,464.753
1994,464.534
1996,464.314
1998,464.155
2000,463.997
2002,463.838
2004,464.321
2006,464.803
2008,465.286
2010,464.979
2012,464.673
2014,464.366
2016,464.254
2018,464.143
2020,464.031
2022,463.879
2024,463.726
2026,463.574
2028,463.54
2030,463.506
2032,463.472
2034,463.581
2036,463.691
2038,463.8
2040,463.557
2042,463.313
2044,463.07
2046,462.858
2048,462.646
2050,462.434
2052,462.406
2054,462.377
2056,462.349
2058,462.376
2060,462.402
2062,462.429
2064,462.385
2066,462.342
2068,462.298
2070,461.988
2072,461.679
2074,461.369
2076,461.481
2078,461.594
2080,461.706
2082,461.524
2084,461.341
2086,461.159
2088,461.104
2090,461.05
2092,460.995
2094,461.054
2096,461.113
2098,461.172
2100,461.093
2102,461.015
2104,460.936
2106,460.956
2108,460.975
2110,460.995
2112,460.829
2114,460.662
2116,460.496
2118,460.557
2120,460.619
2122,460.68
2124,460.436
2126,460.193
2128,459.949
2130,459.904
2132,459.858
2134,459.813
2136,459.68
2138,459.547
2140,459.414
2142,459.56
2144,459.707
2146,459.853
2148,459.614
2150,459.376
2152,459.137
2154,459.212
2156,459.286
2158,459.361
2160,459.423
2162,459.484
2164,459.546
2166,459.144
2168,458.743
2170,458.341
2172,458.57
2174,458.798
2176,459.027
2178,458.758
2180,458.489
2182,458.22
2184,458.213
2186,458.205
2188,458.198
2190,457.939
2192,457.68
2194,457.421
2196,457.414
2198,457.407
2200,457.4
2202,457.348
2204,457.296
2206,457.244
2208,457.249
2210,457.253
2212,457.258
2214,456.974
2216,456.689
2218,456.405
2220,456.474
2222,456.544
2224,456.613
2226,456.469
2228,456.325
2230,456.181
2232,456.307
2234,456.433
2236,456.559
2238,456.466
2240,456.373
2242,456.28
2244,456.5
2246,456.719
2248,456.939
2250,456.421
2252,455.902
2254,455.384
2256,455.545
2258,455.706
2260,455.867
2262,455.726
2264,455.584
2266,455.443
2268,455.374
2270,455.306
2272,455.237
2274,455.35
2276,455.464
2278,455.577
2280,455.264
2282,454.951
2284,454.638
2286,454.535
2288,454.432
2290,454.329
2292,454.37
2294,454.411
2296,454.452
2298,454.539
2300,454.627
2302,454.714
2304,454.625
2306,454.536
2308,454.447
2310,454.319
2312,454.191
2314,454.063
2316,453.917
2318,453.77
2320,453.624
2322,453.752
2324,453.879
2326,454.007
2328,453.863
2330,453.719
2332,453.575
2334,453.428
2336,453.282
2338,453.135
2340,453.243
2342,453.352
2344,453.46
2346,453.082
2348,452.703
2350,452.325
2352,452.416
2354,452.506
2356,452.597
2358,452.632
2360,452.666
2362,452.701
2364,452.663
2366,452.624
2368,452.586
2370,452.151
2372,451.715
2374,451.28
2376,451.706
2378,452.133
2380,452.559
2382,452.49
2384,452.42
2386,452.351
2388,452.202
2390,452.053
2392,451.904
2394,451.767
2396,451.63
2398,451.493
2400,451.229
2700,450.237
2702,450.237
2704,450.237
2706,449.927
2708,449.616
2710,449.306
2712,449.152
2714,448.999
2716,448.845
2718,448.427
2720,448.009
2722,447.591
2724,447.746
2726,447.9
2728,448.055
2730,447.986
2732,447.918
2734,447.849
2736,447.674
2738,447.499
2740,447.324
2742,447.615
2744,447.906
2746,448.197
2748,447.781
2750,447.364
2752,446.948
2754,446.952
2756,446.957
2758,446.961
2760,446.748
2762,446.536
2764,446.323
2766,446.556
2768,446.788
2770,447.021
2772,446.865
2774,446.71
2776,446.554
2778,446.37
2780,446.187
2782,446.003
2784,446.108
2786,446.214
2788,446.319
2790,446.203
2792,446.086
2794,445.97
2796,445.717
2798,445.465
2800,445.212
2802,445.287
2804,445.361
2806,445.436
2808,445.192
2810,444.947
2812,444.703
2814,444.657
2816,444.611
2818,444.565
2820,444.537
2822,444.509
2824,444.481
2826,444.645
2828,444.808
2830,444.972
2832,444.933
2834,444.894
2836,444.855
2838,444.63
2840,444.405
2842,444.18
2844,444.048
2846,443.917
2848,443.785
2850,443.965
2852,444.146
2854,444.326
2856,444.118
2858,443.909
2860,443.701
2862,443.871
2864,444.04
2866,444.21
2868,443.751
2870,443.293
2872,442.834
2874,442.709
2876,442.583
2878,442.458
2880,442.577
2882,442.695
2884,442.814
2886,442.813
2888,442.812
2890,442.811
2892,442.666
2894,442.52
2896,442.375
2898,442.414
2900,442.453
2902,442.492
2904,442.278
2906,442.065
2908,441.851
2910,441.733
2912,441.615
2914,441.497
2916,441.516
2918,441.535
2920,441.554
2922,441.5
2924,441.447
2926,441.393
2928,441.407
2930,441.422
2932,441.436
2934,441.389
2936,441.341
2938,441.294
2940,441.177
2942,441.061
2944,440.944
2946,440.743
2948,440.541
2950,440.34
2952,440.461
2954,440.581
2956,440.702
2958,440.72
2960,440.739
2962,440.757
2964,440.493
2966,440.23
2968,439.966
2970,439.998
2972,440.03
2974,440.062
2976,439.929
2978,439.796
2980,439.663
2982,439.599
2984,439.536
2986,439.472
2988,439.493
2990,439.515
2992,439.536
2994,439.386
2996,439.236
2998,439.086
3000,439.283
3002,439.479
3004,439.676
3006,439.346
3008,439.015
3010,438.685
3012,438.731
3014,438.778
3016,438.824
3018,438.66
3020,438.495
3022,438.331
3024,438.687
3026,439.042
3028,439.398
3030,439.195
3032,438.992
3034,438.789
3036,438.555
3038,438.321
3040,438.087
3042,437.928
3044,437.77
3046,437.611
3048,437.555
3050,437.499
3052,437.443
3054,437.611
3056,437.78
3058,437.948
3060,437.896
3062,437.845
3064,437.793
3066,437.547
3068,437.301
3070,437.055
3072,437.11
3074,437.166
3076,437.221
3078,437.084
3080,436.946
3082,436.809
3084,436.668
3086,436.528
3088,436.387
3090,436.516
3092,436.645
3094,436.774
3096,436.659
3098,436.544
3100,436.429
3102,436.253
3104,436.078
3106,435.902
3108,436.058
3110,436.213
3112,436.369
3114,436.014
3116,435.659
3118,435.304
3120,435.331
3122,435.359
3124,435.386
3126,435.439
3128,435.491
3130,435.544
3132,435.494
3134,435.445
3136,435.395
3138,435.29
3140,435.186
3142,435.081
3144,435.066
3146,435.05
3148,435.035
3150,434.991
3152,434.948
3154,434.904
3156,434.63
3158,434.355
3160,434.081
3162,434.377
3164,434.673
3166,434.969
3168,434.738
3170,434.508
3172,434.277
3174,434.324
3176,434.37
3178,434.417
3180,434.354
3182,434.292
3184,434.229
3186,434.226
3188,434.222
3190,434.219
3192,433.886
3194,433.552
3196,433.219
3198,433.439
3200,433.659
3202,433.879
3204,433.863
3206,433.848
3208,433.832
3210,433.573
3212,433.313
3214,433.054
3216,432.949
3218,432.844
3220,432.739
3222,432.665
3224,432.592
3226,432.518
3228,432.729
3230,432.94
3232,433.151
3234,433.022
3236,432.894
3238,432.765
3240,432.674
3242,432.583
3244,432.492
3246,432.273
3248,432.053
3250,431.834
3252,431.739
3254,431.644
3256,431.549
3258,431.557
3260,431.566
3262,431.574
3264,431.565
3266,431.555
3268,431.546
3270,431.443
3272,431.34
3274,431.237
3276,431.213
3278,431.19
3280,431.166
3282,431.033
3284,430.9
3286,430.767
3288,430.718
3290,430.67
3292,430.621
3294,430.642
3296,430.664
3298,430.685
3300,430.762
3600,430.206
3602,430.206
3604,430.206
3606,430.204
3608,430.201
3610,430.199
3612,430.16
3614,430.122
3616,430.083
3618,429.91
3620,429.737
3622,429.564
3624,429.258
3626,428.952
3628,428.646
3630,428.674
3632,428.702
3634,428.73
3636,428.851
3638,428.973
3640,429.094
3642,429.026
3644,428.958
3646,428.89
3648,428.696
3650,428.503
3652,428.309
3654,428.317
3656,428.325
3658,428.333
3660,428.032
3662,427.731
3664,427.43
3666,427.606
3668,427.781
3670,427.957
3672,428.03
3674,428.104
3676,428.177
3678,427.995
3680,427.812
3682,427.63
3684,427.187
3686,426.745
3688,426.302
3690,426.656
3692,427.01
3694,427.364
3696,427.378
3698,427.392
3700,427.406
3702,427.2
3704,426.993
3706,426.787
3708,426.698
3710,426.609
3712,426.52
3714,426.52
3716,426.521
3718,426.521
3720,426.259
3722,425.996
3724,425.734
3726,425.799
3728,425.865
3730,425.93
3732,426.008
3734,426.086
3736,426.164
3738,426.087
3740,426.009
3742,425.932
3744,425.911
3746,425.889
3748,425.868
3750,425.729
3752,425.591
3754,425.452
3756,425.285
3758,425.117
3760,424.95
3762,425.021
3764,425.092
3766,425.163
3768,425.077
3770,424.992
3772,424.906
3774,425.132
3776,425.358
3778,425.584
3780,425.078
3782,424.571
3784,424.065
3786,424.068
3788,424.07
3790,424.073
3792,424.078
3794,424.082
3796,424.087
3798,424.138
3800,424.188
3802,424.239
3804,424.092
3806,423.945
3808,423.798
3810,423.856
3812,423.915
3814,423.973
3816,423.676
3818,423.38
3820,423.083
3822,423.288
3824,423.493
3826,423.698
3828,423.306
3830,422.915
3832,422.523
3834,422.724
3836,422.924
3838,423.125
3840,423.015
3842,422.904
3844,422.794
3846,422.626
3848,422.457
3850,422.289
3852,422.462
3854,422.635
3856,422.808
3858,422.613
3860,422.418
3862,422.223
3864,422.163
3866,422.103
3868,422.043
3870,422.083
3872,422.124
3874,422.164
3876,422.135
3878,422.107
3880,422.078
3882,422.167
3884,422.257
3886,422.346
3888,421.966
3890,421.586
3892,421.206
3894,421.433
3896,421.661
3898,421.888
3900,421.696
3902,421.503
3904,421.311
3906,421.103
3908,420.894
3910,420.686
3912,420.778
3914,420.87
3916,420.962
3918,421.024
3920,421.087
3922,421.149
3924,420.902
3926,420.654
3928,420.407
3930,420.516
3932,420.624
3934,420.733
3936,420.508
3938,420.282
3940,420.057
3942,420.112
3944,420.166
3946,420.221
3948,420.063
3950,419.906
3952,419.748
3954,419.862
3956,419.975
3958,420.089
3960,420.108
3962,420.128
3964,420.147
3966,419.774
3968,419.401
3970,419.028
3972,419.243
3974,419.459
3976,419.674
3978,419.513
3980,419.353
3982,419.192
3984,419.078
3986,418.965
3988,418.851
3990,418.966
3992,419.08
3994,419.195
3996,419.335
3998,419.476
4000,419.616
4002,419.462
4004,419.309
4006,419.155
4008,418.921
4010,418.687
4012,418.453
4014,418.316
4016,418.18
4018,418.043
4020,418.269
4022,418.496
4024,418.722
4026,418.585
4028,418.448
4030,418.311
4032,418.366
4034,418.42
4036,418.475
4038,418.159
4040,417.842
4042,417.526
4044,417.604
4046,417.682
4048,417.76
4050,417.956
4052,418.151
4054,418.347
4056,417.999
4058,417.65
4060,417.302
4062,417.048
4064,416.795
4066,416.541
4068,416.972
4070,417.403
4072,417.834
4074,417.504
4076,417.173
4078,416.843
4080,416.79
4082,416.737
4084,416.684
4086,416.453
4088,416.223
4090,415.992
4092,416.102
4094,416.213
4096,416.323
4098,416.304
4100,416.286
4102,416.267
4104,416.386
4106,416.504
4108,416.623
4110,416.405
4112,416.188
4114,415.97
4116,415.964
4118,415.958
4120,415.952
4122,415.919
4124,415.886
4126,415.853
4128,415.752
4130,415.652
4132,415.551
4134,415.492
4136,415.433
4138,415.374
4140,415.5
4142,415.627
4144,415.753
4146,415.496
4148,415.24
4150,414.983
4152,414.918
4154,414.852
4156,414.787
4158,414.7
4160,414.613
4162,414.526
4164,414.526
4166,414.526
4168,414.526
4170,414.47
4172,414.413
4174,414.357
4176,414.184
4178,414.012
4180,413.839
4182,413.694
4184,413.55
4186,413.405
4188,413.644
4190,413.884
4192,414.123
4194,414.06
4196,413.996
4198,413.933
4200,413.806
4500,413.416
4502,413.416
4504,413.416
4506,413.646
4508,413.877
4510,414.107
4512,414.099
4514,414.091
4516,414.083
4518,414.029
4520,413.974
4522,413.92
4524,413.79
4526,413.659
4528,413.529
4530,413.384
4532,413.238
4534,413.093
4536,413.068
4538,413.043
4540,413.018
4542,413.075
4544,413.131
4546,413.188
4548,412.905
4550,412.621
4552,412.338
4554,412.335
4556,412.332
4558,412.329
4560,412.367
4562,412.404
4564,412.442
4566,412.324
4568,412.205
4570,412.087
4572,412.155
4574,412.223
4576,412.291
4578,412.102
4580,411.912
4582,411.723
4584,411.501
4586,411.28
4588,411.058
4590,411.374
4592,411.69
4594,412.006
4596,411.79
4598,411.574
4600,411.358
4602,411.423
4604,411.489
4606,411.554
4608,411.365
4610,411.177
4612,410.988
4614,411.133
4616,411.279
4618,411.424
4620,411.213
4622,411.003
4624,410.792
4626,410.622
4628,410.453
4630,410.283
4632,410.309
4634,410.335
4636,410.361
4638,410.429
4640,410.496
4642,410.564
4644,410.387
4646,410.21
4648,410.033
4650,410.086
4652,410.139
4654,410.192
4656,410.127
4658,410.062
4660,409.997
4662,410.053
4664,410.109
4666,410.165
4668,409.863
4670,409.562
4672,409.26
4674,409.223
4676,409.186
4678,409.149
4680,409.279
4682,409.408
4684,409.538
4686,409.244
4688,408.951
4690,408.657
4692,408.639
4694,408.621
4696,408.603
4698,408.602
4700,408.6
4702,408.599
4704,408.65
4706,408.701
4708,408.752
4710,408.484
4712,408.217
4714,407.949
4716,407.987
4718,408.026
4720,408.064
4722,408.347
4724,408.63
4726,408.913
4728,408.499
4730,408.085
4732,407.671
4734,407.694
4736,407.717
4738,407.74
4740,407.755
4742,407.771
4744,407.786
4746,407.955
4748,408.124
4750,408.293
4752,408.032
4754,407.77
4756,407.509
4758,407.488
4760,407.467
4762,407.446
4764,407.653
4766,407.859
4768,408.066
4770,407.736
4772,407.406
4774,407.076
4776,406.929
4778,406.782
4780,406.635
4782,406.85
4784,407.066
4786,407.281
4788,406.976
4790,406.671
4792,406.366
4794,406.405
4796,406.445
4798,406.484
4800,406.196
4802,405.909
4804,405.621
4806,405.802
4808,405.982
4810,406.163
4812,406.058
4814,405.953
4816,405.848
4818,405.929
4820,406.011
4822,406.092
4824,405.91
4826,405.728
4828,405.546
4830,405.395
4832,405.245
4834,405.094
4836,405.226
4838,405.357
4840,405.489
4842,405.295
4844,405.101
4846,404.907
4848,405.163
4850,405.418
4852,405.674
4854,405.32
4856,404.966
4858,404.612
4860,404.763
4862,404.915
4864,405.066
4866,404.973
4868,404.879
4870,404.786
4872,404.981
4874,405.175
4876,405.37
4878,405.148
4880,404.925
4882,404.703
4884,404.45
4886,404.198
4888,403.945
4890,404.097
4892,404.25
4894,404.402
4896,404.379
4898,404.355
4900,404.332
4902,404.047
4904,403.763
4906,403.478
4908,403.774
4910,404.071
4912,404.367
4914,404.212
4916,404.057
4918,403.902
4920,403.788
4922,403.674
4924,403.56
4926,403.586
4928,403.611
4930,403.637
4932,403.375
4934,403.114
4936,402.852
4938,402.884
4940,402.917
4942,402.949
4944,402.863
4946,402.776
4948,402.69
4950,402.843
4952,402.996
4954,403.149
4956,403.107
4958,403.064
4960,403.022
4962,402.905
4964,402.787
4966,402.67
4968,402.813
4970,402.955
4972,403.098
4974,402.865
4976,402.631
4978,402.398
4980,402.443
4982,402.488
4984,402.533
4986,402.248
4988,401.964
4990,401.679
4992,401.877
4994,402.076
4996,402.274
4998,402.126
5000,401.979
5002,401.831
5004,401.685
5006,401.54
5008,401.394
5010,401.661
5012,401.927
5014,402.194
5016,401.812
5018,401.429
5020,401.047
5022,401.226
5024,401.406
5026,401.585
5028,401.383
5030,401.18
5032,400.978
5034,401.079
5036,401.181
5038,401.282
5040,401.513
5042,401.744
5044,401.975
5046,401.692
5048,401.41
5050,401.127
5052,400.986
5054,400.844
5056,400.703
5058,400.462
5060,400.22
5062,399.979
5064,400.216
5066,400.452
5068,400.689
5070,400.504
5072,400.319
5074,400.134
5076,400.189
5078,400.243
5080,400.298
5082,400.175
5084,400.051
5086,399.928
5088,399.812
5090,399.696
5092,399.58
5094,399.535
5096,399.49
5098,399.445
5100,399.658
5400,335.633
5402,335.633
5404,335.633
5406,357.187
5408,378.742
5410,400.296
5412,400.018
5414,399.741
5416,399.463
5418,399.504
5420,399.546
5422,399.587
5424,399.312
5426,399.036
5428,398.761
5430,398.831
5432,398.9
5434,398.97
5436,399.031
5438,399.091
5440,399.152
5442,399.269
5444,399.386
5446,399.503
5448,399.302
5450,399.1
5452,398.899
5454,398.897
5456,398.896
5458,398.894
5460,398.77
5462,398.647
5464,398.523
5466,398.576
5468,398.628
5470,398.681
5472,398.478
5474,398.276
5476,398.073
5478,397.997
5480,397.922
5482,397.846
5484,398.082
5486,398.317
5488,398.553
5490,398.311
5492,398.07
5494,397.828
5496,398.097
5498,398.365
5500,398.634
5502,398.17
5504,397.705
5506,397.241
5508,397.25
5510,397.259
5512,397.268
5514,397.136
5516,397.004
5518,396.872
5520,397.097
5522,397.323
5524,397.548
5526,397.317
5528,397.087
5530,396.856
5532,397.004
5534,397.151
5536,397.299
5538,396.948
5540,396.597
5542,396.246
5544,396.471
5546,396.695
5548,396.92
5550,396.859
5552,396.798
5554,396.737
5556,396.416
5558,396.094
5560,395.773
5562,395.734
5564,395.696
5566,395.657
5568,395.777
5570,395.896
5572,396.016
5574,395.805
5576,395.594
5578,395.383
5580,395.576
5582,395.768
5584,395.961
5586,395.969
5588,395.977
5590,395.985
5592,395.868
5594,395.751
5596,395.634
5598,395.769
5600,395.904
5602,396.039
5604,395.94
5606,395.84
5608,395.741
5610,395.643
5612,395.544
5614,395.446
5616,395.218
5618,394.99
5620,394.762
5622,394.9
5624,395.039
5626,395.177
5628,394.943
5630,394.71
5632,394.476
5634,394.321
5636,394.167
5638,394.012
5640,393.971
5642,393.929
5644,393.888
5646,393.8
5648,393.713
5650,393.625
5652,393.848
5654,394.07
5656,394.293
5658,394.341
5660,394.389
5662,394.437
5664,394.227
5666,394.017
5668,393.807
5670,393.834
5672,393.862
5674,393.889
5676,393.721
5678,393.553
5680,393.385
5682,393.601
5684,393.818
5686,394.034
5688,393.771
5690,393.508
5692,393.245
5694,393.323
5696,393.401
5698,393.479
5700,393.359
5702,393.239
5704,393.119
5706,393.131
5708,393.142
5710,393.154
5712,393.083
5714,393.011
5716,392.94
5718,392.93
5720,392.92
5722,392.91
5724,392.748
5726,392.587
5728,392.425
5730,392.405
5732,392.386
5734,392.366
5736,392.581
5738,392.797
5740,393.012
5742,392.71
5744,392.409
5746,392.107
5748,392.208
5750,392.308
5752,392.409
5754,392.553
5756,392.697
5758,392.841
5760,392.607
5762,392.374
5764,392.14
5766,392.042
5768,391.944
5770,391.846
5772,391.939
5774,392.031
5776,392.124
5778,391.942
5780,391.76
5782,391.578
5784,391.697
5786,391.817
5788,391.936
5790,391.718
5792,391.499
5794,391.281
5796,391.312
5798,391.342
5800,391.373
5802,391.514
5804,391.656
5806,391.797
5808,391.488
5810,391.18
5812,390.871
5814,390.746
5816,390.62
5818,390.495
5820,390.653
5822,390.812
5824,390.97
5826,390.941
5828,390.913
5830,390.884
5832,390.764
5834,390.643
5836,390.523
5838,390.523
5840,390.522
5842,390.522
5844,390.321
5846,390.119
5848,389.918
5850,390.225
5852,390.533
5854,390.84
5856,390.855
5858,390.871
5860,390.886
5862,390.531
5864,390.177
5866,389.822
5868,389.82
5870,389.819
5872,389.817
5874,389.871
5876,389.924
5878,389.978
5880,389.864
5882,389.751
5884,389.637
5886,389.544
5888,389.452
5890,389.359
5892,389.251
5894,389.143
5896,389.035
5898,388.98
5900,388.925
5902,388.87
5904,388.885
5906,388.899
5908,388.914
5910,388.808
5912,388.703
5914,388.597
5916,388.661
5918,388.726
5920,388.79
5922,388.76
5924,388.73
5926,388.7
5928,388.77
5930,388.839
5932,388.909
5934,388.626
5936,388.344
5938,388.061
5940,388.097
5942,388.132
5944,388.168
5946,388.056
5948,387.943
5950,387.831
5952,388.016
5954,388.2
5956,388.385
5958,388.276
5960,388.168
5962,388.059
5964,387.882
5966,387.705
5968,387.528
5970,387.47
5972,387.412
5974,387.354
5976,387.361
5978,387.369
5980,387.376
5982,387.4
5984,387.424
5986,387.448
5988,387.45
5990,387.453
5992,387.455
5994,387.252
5996,387.048
5998,386.845
6000,386.876
6300,389.49
6302,389.49
6304,389.49
6306,389.096
6308,388.701
6310,388.307
6312,388.035
6314,387.763
6316,387.491
6318,387.449
6320,387.408
6322,387.366
6324,387.454
6326,387.542
6328,387.63
6330,387.383
6332,387.135
6334,386.888
6336,386.732
6338,386.577
6340,386.421
6342,386.484
6344,386.547
6346,386.61
6348,386.75
6350,386.889
6352,387.029
6354,386.904
6356,386.78
6358,386.655
6360,386.591
6362,386.527
6364,386.463
6366,386.395
6368,386.328
6370,386.26
6372,386.27
6374,386.279
6376,386.289
6378,386.125
6380,385.962
6382,385.798
6384,385.841
6386,385.883
6388,385.926
6390,385.89
6392,385.853
6394,385.817
6396,385.893
6398,385.97
6400,386.046
6402,385.958
6404,385.871
6406,385.783
6408,385.572
6410,385.362
6412,385.151
6414,385.04
6416,384.928
6418,384.817
6420,384.763
6422,384.709
6424,384.655
6426,384.948
6428,385.24
6430,385.533
6432,385.454
6434,385.374
6436,385.295
6438,385.174
6440,385.053
6442,384.932
6444,384.993
6446,385.054
6448,385.115
6450,384.843
6452,384.571
6454,384.299
6456,384.495
6458,384.69
6460,384.886
6462,384.7
6464,384.513
6466,384.327
6468,384.484
6470,384.641
6472,384.798
6474,384.583
6476,384.368
6478,384.153
6480,384.209
6482,384.265
6484,384.321
6486,384.217
6488,384.112
6490,384.008
6492,383.987
6494,383.967
6496,383.946
6498,383.649
6500,383.353
6502,383.056
6504,383.27
6506,383.484
6508,383.698
6510,383.515
6512,383.331
6514,383.148
6516,383.125
6518,383.103
6520,383.08
6522,383.191
6524,383.301
6526,383.412
6528,383.136
6530,382.861
6532,382.585
6534,382.557
6536,382.529
6538,382.501
6540,382.511
6542,382.521
6544,382.531
6546,382.248
6548,381.965
6550,381.682
6552,381.938
6554,382.195
6556,382.451
6558,382.528
6560,382.605
6562,382.682
6564,382.602
6566,382.521
6568,382.441
6570,382.215
6572,381.989
6574,381.763
6576,381.835
6578,381.907
6580,381.979
6582,381.697
6584,381.414
6586,381.132
6588,381.35
6590,381.569
6592,381.787
6594,381.904
6596,382.02
6598,382.137
6600,382.048
6602,381.96
6604,381.871
6606,381.507
6608,381.143
6610,380.779
6612,381.162
6614,381.546
6616,381.929
6618,381.652
6620,381.374
6622,381.097
6624,381.011
6626,380.924
6628,380.838
6630,380.869
6632,380.899
6634,380.93
6636,380.828
6638,380.725
6640,380.623
6642,380.738
6644,380.852
6646,380.967
6648,380.698
6650,380.429
6652,380.16
6654,380.295
6656,380.429
6658,380.564
6660,380.263
6662,379.962
6664,379.661
6666,379.725
6668,379.789
6670,379.853
6672,379.769
6674,379.685
6676,379.601
6678,379.683
6680,379.766
6682,379.848
6684,379.855
6686,379.861
6688,379.868
6690,379.831
6692,379.793
6694,379.756
6696,379.476
6698,379.197
6700,378.917
6702,379.004
6704,379.09
6706,379.177
6708,379.137
6710,379.096
6712,379.056
6714,378.731
6716,378.405
6718,378.08
6720,378.279
6722,378.479
6724,378.678
6726,378.578
6728,378.478
6730,378.378
6732,378.189
6734,378
6736,377.811
6738,377.886
6740,377.961
6742,378.036
6744,378.007
6746,377.977
6748,377.948
6750,378.113
6752,378.278
6754,378.443
6756,378.265
6758,378.087
6760,377.909
6762,377.861
6764,377.812
6766,377.764
6768,377.77
6770,377.776
6772,377.782
6774,377.924
6776,378.065
6778,378.207
6780,378.098
6782,377.988
6784,377.879
6786,377.76
6788,377.64
6790,377.521
6792,377.536
6794,377.552
6796,377.567
6798,377.529
6800,377.491
6802,377.453
6804,377.327
6806,377.2
6808,377.074
6810,377.019
6812,376.963
6814,376.908
6816,376.896
6818,376.883
6820,376.871
6822,376.715
6824,376.56
6826,376.404
6828,376.478
6830,376.552
6832,376.626
6834,376.737
6836,376.847
6838,376.958
6840,376.644
6842,376.331
6844,376.017
6846,376.154
6848,376.292
6850,376.429
6852,376.159
6854,375.888
6856,375.618
6858,375.622
6860,375.627
6862,375.631
6864,375.719
6866,375.806
6868,375.894
6870,375.599
6872,375.305
6874,375.01
6876,375.106
6878,375.201
6880,375.297
6882,375.325
6884,375.353
6886,375.381
6888,375.237
6890,375.094
6892,374.95
6894,374.793
6896,374.635
6898,374.478
6900,374.671
7200,377.571
7202,377.571
7204,377.571
7206,377.097
7208,376.623
7210,376.149
7212,376.163
7214,376.176
7216,376.19
7218,375.919
7220,375.648
7222,375.377
7224,375.248
7226,375.119
7228,374.99
7230,375.266
7232,375.541
7234,375.817
7236,375.604
7238,375.392
7240,375.179
7242,375.173
7244,375.167
7246,375.161
7248,375.023
7250,374.886
7252,374.748
7254,374.843
7256,374.937
7258,375.032
7260,374.696
7262,374.36
7264,374.024
7266,373.925
7268,373.826
7270,373.727
7272,373.82
7274,373.912
7276,374.005
7278,374.103
7280,374.202
7282,374.3
7284,374.404
7286,374.509
7288,374.613
7290,374.565
7292,374.516
7294,374.468
7296,374.251
7298,374.034
7300,373.817
7302,373.893
7304,373.968
7306,374.044
7308,373.711
7310,373.377
7312,373.044
7314,373.053
7316,373.063
7318,373.072
7320,372.975
7322,372.879
7324,372.782
7326,372.719
7328,372.655
7330,372.592
7332,372.576
7334,372.559
7336,372.543
7338,372.555
7340,372.566
7342,372.578
7344,372.5
7346,372.423
7348,372.345
7350,372.42
7352,372.495
7354,372.57
7356,372.407
7358,372.245
7360,372.082
7362,372.163
7364,372.244
7366,372.325
7368,372.184
7370,372.042
7372,371.901
7374,372.136
7376,372.37
7378,372.605
7380,372.27
7382,371.936
7384,371.601
7386,371.437
7388,371.272
7390,371.108
7392,371.243
7394,371.379
7396,371.514
7398,371.558
7400,371.602
7402,371.646
7404,371.424
7406,371.202
7408,370.98
7410,371.175
7412,371.369
7414,371.564
7416,371.364
7418,371.163
7420,370.963
7422,370.856
7424,370.748
7426,370.641
7428,370.644
7430,370.647
7432,370.65
7434,370.594
7436,370.537
7438,370.481
7440,370.353
7442,370.225
7444,370.097
7446,370.211
7448,370.325
7450,370.439
7452,370.179
7454,369.918
7456,369.658
7458,369.647
7460,369.636
7462,369.625
7464,369.585
7466,369.545
7468,369.505
7470,369.631
7472,369.756
7474,369.882
7476,369.732
7478,369.583
7480,369.433
7482,369.534
7484,369.636
7486,369.737
7488,369.651
7490,369.565
7492,369.479
7494,369.397
7496,369.314
7498,369.232
7500,369.176
7502,369.12
7504,369.064
7506,368.957
7508,368.85
7510,368.743
7512,368.821
7514,368.899
7516,368.977
7518,368.972
7520,368.968
7522,368.963
7524,368.957
7526,368.952
7528,368.946
7530,369.116
7532,369.285
7534,369.455
7536,369.05
7538,368.644
7540,368.239
7542,368.544
7544,368.848
7546,369.153
7548,369.097
7550,369.041
7552,368.985
7554,368.514
7556,368.043
7558,367.572
7560,367.656
7562,367.741
7564,367.825
7566,367.998
7568,368.17
7570,368.343
7572,368.087
7574,367.832
7576,367.576
7578,367.686
7580,367.795
7582,367.905
7584,367.809
7586,367.714
7588,367.618
7590,367.631
7592,367.645
7594,367.658
7596,367.284
7598,366.909
7600,366.535
7602,366.709
7604,366.882
7606,367.056
7608,367.158
7610,367.26
7612,367.362
7614,367.375
7616,367.389
7618,367.402
7620,367.256
7622,367.111
7624,366.965
7626,366.867
7628,366.768
7630,366.67
7632,366.598
7634,366.526
7636,366.454
7638,366.401
7640,366.348
7642,366.295
7644,366.182
7646,366.069
7648,365.956
7650,366.057
7652,366.157
7654,366.258
7656,366.044
7658,365.831
7660,365.617
7662,365.714
7664,365.811
7666,365.908
7668,365.963
7670,366.018
7672,366.073
7674,366.064
7676,366.055
7678,366.046
7680,365.974
7682,365.901
7684,365.829
7686,365.867
7688,365.906
7690,365.944
7692,365.781
7694,365.619
7696,365.456
7698,365.595
7700,365.735
7702,365.874
7704,365.767
7706,365.66
7708,365.553
7710,365.363
7712,365.174
7714,364.984
7716,364.959
7718,364.933
7720,364.908
7722,364.695
7724,364.481
7726,364.268
7728,364.485
7730,364.703
7732,364.92
7734,364.93
7736,364.941
7738,364.951
7740,364.945
7742,364.939
7744,364.933
7746,364.933
7748,364.932
7750,364.932
7752,364.71
7754,364.489
7756,364.267
7758,364.278
7760,364.288
7762,364.299
7764,364.307
7766,364.316
7768,364.324
7770,363.947
7772,363.569
7774,363.192
7776,363.639
7778,364.085
7780,364.532
7782,364.426
7784,364.32
7786,364.214
7788,363.932
7790,363.649
7792,363.367
7794,363.331
7796,363.294
7798,363.258
7800,363.387
8100,366.67
8102,366.67
8104,366.67
8106,366.275
8108,365.88
8110,365.485
8112,365.626
8114,365.766
8116,365.907
8118,365.516
8120,365.125
8122,364.734
8124,364.792
8126,364.851
8128,364.909
8130,364.839
8132,364.769
8134,364.699
8136,364.817
8138,364.935
8140,365.053
8142,364.878
8144,364.704
8146,364.529
8148,364.516
8150,364.502
8152,364.489
8154,364.483
8156,364.476
8158,364.47
8160,364.374
8162,364.279
8164,364.183
8166,364.429
8168,364.676
8170,364.922
8172,364.51
8174,364.097
8176,363.685
8178,363.727
8180,363.77
8182,363.812
8184,363.499
8186,363.187
8188,362.874
8190,362.967
8192,363.061
8194,363.154
8196,363.153
8198,363.153
8200,363.152
8202,363.312
8204,363.473
8206,363.633
8208,363.586
8210,363.539
8212,363.492
8214,363.497
8216,363.502
8218,363.507
8220,363.418
8222,363.328
8224,363.239
8226,363.241
8228,363.242
8230,363.244
8232,362.968
8234,362.692
8236,362.416
8238,362.496
8240,362.577
8242,362.657
8244,362.66
8246,362.664
8248,362.667
8250,362.621
8252,362.574
8254,362.528
8256,362.407
8258,362.285
8260,362.164
8262,362.258
8264,362.351
8266,362.445
8268,362.4
8270,362.354
8272,362.309
8274,362.207
8276,362.105
8278,362.003
8280,361.973
8282,361.943
8284,361.913
8286,362.01
8288,362.107
8290,362.204
8292,361.934
8294,361.664
8296,361.394
8298,361.558
8300,361.722
8302,361.886
8304,361.727
8306,361.568
8308,361.409
8310,361.477
8312,361.544
8314,361.612
8316,361.78
8318,361.949
8320,362.117
8322,361.819
8324,361.52
8326,361.222
8328,361.379
8330,361.536
8332,361.693
8334,361.507
8336,361.322
8338,361.136
8340,361.241
8342,361.345
8344,361.45
8346,361.24
8348,361.029
8350,360.819
8352,360.896
8354,360.972
8356,361.049
8358,361.082
8360,361.116
8362,361.149
8364,360.881
8366,360.613
8368,360.345
8370,360.321
8372,360.297
8374,360.273
8376,360.302
8378,360.33
8380,360.359
8382,360.347
8384,360.334
8386,360.322
8388,360.198
8390,360.074
8392,359.95
8394,360.132
8396,360.315
8398,360.497
8400,360.222
8402,359.947
8404,359.672
8406,359.705
8408,359.738
8410,359.771
8412,359.792
8414,359.814
8416,359.835
8418,359.699
8420,359.562
8422,359.426
8424,359.428
8426,359.43
8428,359.432
8430,359.704
8432,359.977
8434,360.249
8436,359.918
8438,359.586
8440,359.255
8442,359.202
8444,359.15
8446,359.097
8448,359.153
8450,359.21
8452,359.266
8454,359.26
8456,359.254
8458,359.248
8460,358.937
8462,358.625
8464,358.314
8466,358.682
8468,359.05
8470,359.418
8472,359.302
8474,359.187
8476,359.071
8478,358.863
8480,358.655
8482,358.447
8484,358.493
8486,358.54
8488,358.586
8490,358.594
8492,358.601
8494,358.609
8496,358.547
8498,358.486
8500,358.424
8502,358.098
8504,357.772
8506,357.446
8508,357.784
8510,358.123
8512,358.461
8514,358.33
8516,358.199
8518,358.068
8520,358.12
8522,358.172
8524,358.224
8526,358.225
8528,358.225
8530,358.226
8532,358.223
8534,358.219
8536,358.216
8538,357.941
8540,357.665
8542,357.39
8544,357.4
8546,357.411
8548,357.421
8550,357.462
8552,357.504
8554,357.545
8556,357.617
8558,357.69
8560,357.762
8562,357.563
8564,357.365
8566,357.166
8568,357.226
8570,357.287
8572,357.347
8574,357.418
8576,357.49
8578,357.561
8580,357.357
8582,357.152
8584,356.948
8586,356.944
8588,356.94
8590,356.936
8592,356.755
8594,356.574
8596,356.393
8598,356.516
8600,356.639
8602,356.762
8604,356.696
8606,356.631
8608,356.565
8610,356.535
8612,356.504
8614,356.474
8616,356.614
8618,356.754
8620,356.894
8622,356.853
8624,356.812
8626,356.771
8628,356.755
8630,356.74
8632,356.724
8634,356.495
8636,356.267
8638,356.038
8640,356.071
8642,356.105
8644,356.138
8646,355.985
8648,355.832
8650,355.679
8652,355.59
8654,355.502
8656,355.413
8658,355.448
8660,355.482
8662,355.517
8664,355.524
8666,355.531
8668,355.538
8670,355.564
8672,355.59
8674,355.616
8676,355.627
8678,355.637
8680,355.648
8682,355.589
8684,355.531
8686,355.472
8688,355.437
8690,355.403
8692,355.368
8694,355.436
8696,355.505
8698,355.573
8700,355.325
9000,360.126
9002,360.126
9004,360.126
9006,359.278
9008,358.43
9010,357.582
9012,357.716
9014,357.849
9016,357.983
9018,357.649
9020,357.316
9022,356.982
9024,357.245
9026,357.507
9028,357.77
9030,357.767
9032,357.765
9034,357.762
9036,357.715
9038,357.669
9040,357.622
9042,357.488
9044,357.355
9046,357.221
9048,357.281
9050,357.342
9052,357.402
9054,357.226
9056,357.05
9058,356.874
9060,356.794
9062,356.713
9064,356.633
9066,356.735
9068,356.837
9070,356.939
9072,356.709
9074,356.48
9076,356.25
9078,356.382
9080,356.515
9082,356.647
9084,356.621
9086,356.594
9088,356.568
9090,356.403
9092,356.237
9094,356.072
9096,355.998
9098,355.925
9100,355.851
9102,355.922
9104,355.994
9106,356.065
9108,356.016
9110,355.967
9112,355.918
9114,356.008
9116,356.098
9118,356.188
9120,356.101
9122,356.015
9124,355.928
9126,355.722
9128,355.516
9130,355.31
9132,355.323
9134,355.337
9136,355.35
9138,355.381
9140,355.412
9142,355.443
9144,355.516
9146,355.59
9148,355.663
9150,355.335
9152,355.006
9154,354.678
9156,354.853
9158,355.027
9160,355.202
9162,355.23
9164,355.257
9166,355.285
9168,355.074
9170,354.863
9172,354.652
9174,354.8
9176,354.947
9178,355.095
9180,354.942
9182,354.789
9184,354.636
9186,354.74
9188,354.843
9190,354.947
9192,354.746
9194,354.546
9196,354.345
9198,354.441
9200,354.538
9202,354.634
9204,354.479
9206,354.325
9208,354.17
9210,354.189
9212,354.208
9214,354.227
9216,354.305
9218,354.384
9220,354.462
9222,354.312
9224,354.161
9226,354.011
9228,354.171
9230,354.332
9232,354.492
9234,354.136
9236,353.781
9238,353.425
9240,353.285
9242,353.144
9244,353.004
9246,353.165
9248,353.326
9250,353.487
9252,353.509
9254,353.531
9256,353.553
9258,353.475
9260,353.396
9262,353.318
9264,353.217
9266,353.116
9268,353.015
9270,352.958
9272,352.901
9274,352.844
9276,352.856
9278,352.867
9280,352.879
9282,353.063
9284,353.246
9286,353.43
9288,353.225
9290,353.021
9292,352.816
9294,352.931
9296,353.046
9298,353.161
9300,352.957
9302,352.754
9304,352.55
9306,352.585
9308,352.62
9310,352.655
9312,352.536
9314,352.417
9316,352.298
9318,352.182
9320,352.067
9322,351.951
9324,352.107
9326,352.264
9328,352.42
9330,352.3
9332,352.18
9334,352.06
9336,352.039
9338,352.018
9340,351.997
9342,351.83
9344,351.663
9346,351.496
9348,351.433
9350,351.369
9352,351.306
9354,351.411
9356,351.515
9358,351.62
9360,351.591
9362,351.561
9364,351.532
9366,351.314
9368,351.097
9370,350.879
9372,350.822
9374,350.766
9376,350.709
9378,350.705
9380,350.701
9382,350.697
9384,350.716
9386,350.736
9388,350.755
9390,350.778
9392,350.802
9394,350.825
9396,350.965
9398,351.105
9400,351.245
9402,351.175
9404,351.106
9406,351.036
9408,350.886
9410,350.737
9412,350.587
9414,350.463
9416,350.338
9418,350.214
9420,350.327
9422,350.44
9424,350.553
9426,350.546
9428,350.538
9430,350.531
9432,350.258
9434,349.985
9436,349.712
9438,349.863
9440,350.014
9442,350.165
9444,350.178
9446,350.19
9448,350.203
9450,349.971
9452,349.74
9454,349.508
9456,349.527
9458,349.546
9460,349.565
9462,349.583
9464,349.6
9466,349.618
9468,349.52
9470,349.423
9472,349.325
9474,349.287
9476,349.249
9478,349.211
9480,349.049
9482,348.886
9484,348.724
9486,348.817
9488,348.909
9490,349.002
9492,348.775
9494,348.548
9496,348.321
9498,348.59
9500,348.859
9502,349.128
9504,348.634
9506,348.139
9508,347.645
9510,347.794
9512,347.944
9514,348.093
9516,348.344
9518,348.596
9520,348.847
9522,348.472
9524,348.097
9526,347.722
9528,347.936
9530,348.151
9532,348.365
9534,347.959
9536,347.553
9538,347.147
9540,347.535
9542,347.922
9544,348.31
9546,348.058
9548,347.806
9550,347.554
9552,347.51
9554,347.466
9556,347.422
9558,347.524
9560,347.626
9562,347.728
9564,347.586
9566,347.444
9568,347.302
9570,347.239
9572,347.176
9574,347.113
9576,347.142
9578,347.172
9580,347.201
9582,347.284
9584,347.368
9586,347.451
9588,347.172
9590,346.892
9592,346.613
9594,346.85
9596,347.088
9598,347.325
9600,347.126
9900,349.658
9902,349.658
9904,349.658
9906,349.841
9908,350.024
9910,350.207
9912,350.305
9914,350.402
9916,350.5
9918,350.257
9920,350.014
9922,349.771
9924,349.809
9926,349.847
9928,349.885
9930,349.51
9932,349.134
9934,348.759
9936,348.998
9938,349.236
9940,349.475
9942,349.263
9944,349.05
9946,348.838
9948,348.872
9950,348.906
9952,348.94
9954,349.018
9956,349.096
9958,349.174
9960,348.999
9962,348.823
9964,348.648
9966,348.631
9968,348.614
9970,348.597
9972,348.507
9974,348.418
9976,348.328
9978,348.456
9980,348.585
9982,348.713
9984,348.56
9986,348.406
9988,348.253
9990,348.147
9992,348.041
9994,347.935
9996,348.113
9998,348.29
10000,348.468
10002,348.157
10004,347.846
10006,347.535
10008,347.682
10010,347.829
10012,347.976
10014,348.062
10016,348.147
10018,348.233
10020,348.166
10022,348.098
10024,348.031
10026,347.871
10028,347.712
10030,347.552
10032,347.56
10034,347.568
10036,347.576
10038,347.458
10040,347.339
10042,347.221
10044,347.342
10046,347.463
10048,347.584
10050,347.405
10052,347.225
10054,347.046
10056,346.915
10058,346.784
10060,346.653
10062,346.694
10064,346.734
10066,346.775
10068,346.668
10070,346.562
10072,346.455
10074,346.437
10076,346.419
10078,346.401
10080,346.719
10082,347.038
10084,347.356
10086,346.954
10088,346.551
10090,346.149
10092,346.185
10094,346.221
10096,346.257
10098,346.259
10100,346.261
10102,346.263
10104,346.303
10106,346.343
10108,346.383
10110,346.4
10112,346.417
10114,346.434
10116,346.324
10118,346.213
10120,346.103
10122,345.956
10124,345.809
10126,345.662
10128,345.794
10130,345.925
10132,346.057
10134,345.983
10136,345.909
10138,345.835
10140,345.724
10142,345.614
10144,345.503
10146,345.608
10148,345.712
10150,345.817
10152,345.863
10154,345.908
10156,345.954
10158,345.649
10160,345.344
10162,345.039
10164,345.125
10166,345.21
10168,345.296
10170,345.321
10172,345.347
10174,345.372
10176,345.313
10178,345.255
10180,345.196
10182,345.314
10184,345.432
10186,345.55
10188,345.322
10190,345.093
10192,344.865
10194,344.752
10196,344.639
10198,344.526
10200,344.686
10202,344.846
10204,345.006
10206,344.834
10208,344.662
10210,344.49
10212,344.401
10214,344.312
10216,344.223
10218,344.096
10220,343.969
10222,343.842
10224,344.01
10226,344.178
10228,344.346
10230,344.271
10232,344.197
10234,344.122
10236,344.118
10238,344.113
10240,344.109
10242,344.1
10244,344.092
10246,344.083
10248,344.161
10250,344.24
10252,344.318
10254,344.17
10256,344.023
10258,343.875
10260,343.95
10262,344.026
10264,344.101
10266,343.913
10268,343.724
10270,343.536
10272,343.397
10274,343.257
10276,343.118
10278,343.393
10280,343.669
10282,343.944
10284,343.859
10286,343.773
10288,343.688
10290,343.59
10292,343.492
10294,343.394
10296,343.285
10298,343.175
10300,343.066
10302,342.955
10304,342.845
10306,342.734
10308,342.842
10310,342.949
10312,343.057
10314,342.962
10316,342.866
10318,342.771
10320,342.786
10322,342.802
10324,342.817
10326,342.701
10328,342.584
10330,342.468
10332,342.579
10334,342.689
10336,342.8
10338,342.668
10340,342.535
10342,342.403
10344,342.414
10346,342.424
10348,342.435
10350,342.531
10352,342.628
10354,342.724
10356,342.515
10358,342.307
10360,342.098
10362,341.961
10364,341.825
10366,341.688
10368,341.783
10370,341.879
10372,341.974
10374,342.108
10376,342.242
10378,342.376
10380,342.164
10382,341.951
10384,341.739
10386,341.763
10388,341.787
10390,341.811
10392,341.848
10394,341.885
10396,341.922
10398,341.867
10400,341.812
10402,341.757
10404,341.778
10406,341.799
10408,341.82
10410,341.833
10412,341.846
10414,341.859
10416,341.824
10418,341.79
10420,341.755
10422,341.746
10424,341.737
10426,341.728
10428,341.561
10430,341.393
10432,341.226
10434,341.132
10436,341.038
10438,340.944
10440,341.127
10442,341.311
10444,341.494
10446,341.225
10448,340.957
10450,340.688
10452,340.673
10454,340.657
10456,340.642
10458,340.872
10460,341.103
10462,341.333
10464,341.217
10466,341.101
10468,340.985
10470,341.037
10472,341.088
10474,341.14
10476,340.993
10478,340.846
10480,340.699
10482,340.904
10484,341.108
10486,341.313
10488,341.204
10490,341.095
10492,340.986
10494,340.81
10496,340.634
10498,340.458
10500,340.517
10800,344.963
10802,344.963
10804,344.963
10806,344.633
10808,344.303
10810,343.973
10812,343.811
10814,343.65
10816,343.488
10818,343.603
10820,343.719
10822,343.834
10824,343.565
10826,343.296
10828,343.027
10830,343.087
10832,343.148
10834,343.208
10836,343.24
10838,343.271
10840,343.303
10842,343.18
10844,343.056
10846,342.933
10848,343.065
10850,343.198
10852,343.33
10854,343.185
10856,343.04
10858,342.895
10860,342.726
10862,342.558
10864,342.389
10866,342.42
10868,342.45
10870,342.481
10872,342.458
10874,342.435
10876,342.412
10878,342.279
10880,342.145
10882,342.012
10884,342.028
10886,342.045
10888,342.061
10890,341.852
10892,341.642
10894,341.433
10896,341.609
10898,341.784
10900,341.96
10902,342.036
10904,342.113
10906,342.189
10908,341.988
10910,341.787
10912,341.586
10914,341.635
10916,341.684
10918,341.733
10920,341.649
10922,341.566
10924,341.482
10926,341.57
10928,341.658
10930,341.746
10932,341.575
10934,341.403
10936,341.232
10938,341.068
10940,340.904
10942,340.74
10944,340.896
10946,341.052
10948,341.208
10950,341.228
10952,341.247
10954,341.267
10956,341.321
10958,341.376
10960,341.43
10962,341.262
10964,341.094
10966,340.926
10968,341.042
10970,341.157
10972,341.273
10974,341.199
10976,341.124
10978,341.05
10980,340.997
10982,340.943
10984,340.89
10986,340.698
10988,340.506
10990,340.314
10992,340.325
10994,340.335
10996,340.346
10998,340.624
11000,340.901
11002,341.179
11004,340.834
11006,340.49
11008,340.145
11010,340.207
11012,340.27
11014,340.332
11016,340.34
11018,340.347
11020,340.355
11022,340.171
11024,339.986
11026,339.802
11028,339.729
11030,339.656
11032,339.583
11034,339.838
11036,340.092
11038,340.347
11040,340.078
11042,339.809
11044,339.54
11046,339.509
11048,339.477
11050,339.446
11052,339.488
11054,339.531
11056,339.573
11058,339.503
11060,339.434
11062,339.364
11064,339.252
11066,339.139
11068,339.027
11070,338.949
11072,338.871
11074,338.793
11076,338.784
11078,338.774
11080,338.765
11082,339.064
11084,339.364
11086,339.663
11088,339.374
11090,339.084
11092,338.795
11094,338.923
11096,339.052
11098,339.18
11100,339.134
11102,339.089
11104,339.043
11106,339.069
11108,339.095
11110,339.121
11112,338.998
11114,338.875
11116,338.752
11118,338.644
11120,338.537
11122,338.429
11124,338.496
11126,338.563
11128,338.63
11130,338.417
11132,338.203
11134,337.99
11136,338.043
11138,338.095
11140,338.148
11142,338.214
11144,338.281
11146,338.347
11148,338.162
11150,337.978
11152,337.793
11154,337.904
11156,338.016
11158,338.127
11160,338.145
11162,338.163
11164,338.181
11166,338.254
11168,338.328
11170,338.401
11172,338.054
11174,337.707
11176,337.36
11178,337.605
11180,337.849
11182,338.094
11184,337.647
11186,337.201
11188,336.754
11190,336.876
11192,336.998
11194,337.12
11196,336.99
11198,336.86
11200,336.73
11202,336.859
11204,336.989
11206,337.118
11208,336.993
11210,336.868
11212,336.743
11214,336.84
11216,336.937
11218,337.034
11220,337.09
11222,337.145
11224,337.201
11226,337.124
11228,337.048
11230,336.971
11232,336.754
11234,336.538
11236,336.321
11238,336.524
11240,336.727
11242,336.93
11244,336.79
11246,336.651
11248,336.511
11250,336.498
11252,336.486
11254,336.473
11256,336.489
11258,336.504
11260,336.52
11262,336.355
11264,336.19
11266,336.025
11268,336.005
11270,335.985
11272,335.965
11274,336.067
11276,336.168
11278,336.27
11280,336.188
11282,336.107
11284,336.025
11286,335.979
11288,335.932
11290,335.886
11292,335.896
11294,335.907
11296,335.917
11298,335.976
11300,336.035
11302,336.094
11304,335.937
11306,335.781
11308,335.624
11310,335.583
11312,335.542
11314,335.501
11316,335.657
11318,335.813
11320,335.969
11322,335.666
11324,335.362
11326,335.059
11328,335.269
11330,335.478
11332,335.688
11334,335.412
11336,335.137
11338,334.861
11340,334.851
11342,334.842
11344,334.832
11346,334.834
11348,334.837
11350,334.839
11352,335.007
11354,335.176
11356,335.344
11358,335.085
11360,334.826
11362,334.567
11364,334.646
11366,334.725
11368,334.804
11370,334.809
11372,334.815
11374,334.82
11376,334.768
11378,334.717
11380,334.665
11382,334.675
11384,334.686
11386,334.696
11388,334.54
11390,334.383
11392,334.227
11394,334.122
11396,334.018
11398,333.913
11400,333.91
11700,323.509
11702,323.509
11704,323.509
11706,327.818
11708,332.128
11710,336.437
11712,336.645
11714,336.852
11716,337.06
11718,336.889
11720,336.718
11722,336.547
11724,336.605
11726,336.663
11728,336.721
11730,336.694
11732,336.667
11734,336.64
11736,336.657
11738,336.673
11740,336.69
11742,336.639
11744,336.587
11746,336.536
11748,336.409
11750,336.282
11752,336.155
11754,336.182
11756,336.209
11758,336.236
11760,336.188
11762,336.139
11764,336.091
11766,335.993
11768,335.895
11770,335.797
11772,335.932
11774,336.067
11776,336.202
11778,336.196
11780,336.189
11782,336.183
11784,336.013
11786,335.843
11788,335.673
11790,335.487
11792,335.302
11794,335.116
11796,335.13
11798,335.144
11800,335.158
11802,335.151
11804,335.144
11806,335.137
11808,334.973
11810,334.808
11812,334.644
11814,334.822
11816,334.999
11818,335.177
11820,335.218
11822,335.259
11824,335.3
11826,335.15
11828,335.001
11830,334.851
11832,334.77
11834,334.69
11836,334.609
11838,334.514
11840,334.42
11842,334.325
11844,334.526
11846,334.727
11848,334.928
11850,334.895
11852,334.863
11854,334.83
11856,334.73
11858,334.629
11860,334.529
11862,334.436
11864,334.342
11866,334.249
11868,334.282
11870,334.314
11872,334.347
11874,334.352
11876,334.357
11878,334.362
11880,334.392
11882,334.421
11884,334.451
11886,334.466
11888,334.481
11890,334.496
11892,334.272
11894,334.048
11896,333.824
11898,333.893
11900,333.961
11902,334.03
11904,334.051
11906,334.073
11908,334.094
11910,333.96
11912,333.825
11914,333.691
11916,333.857
11918,334.024
11920,334.19
11922,333.97
11924,333.751
11926,333.531
11928,333.574
11930,333.617
11932,333.66
11934,333.618
11936,333.577
11938,333.535
11940,333.409
11942,333.283
11944,333.157
11946,333.291
11948,333.426
11950,333.56
11952,333.337
11954,333.113
11956,332.89
11958,332.909
11960,332.928
11962,332.947
11964,332.944
11966,332.942
11968,332.939
11970,332.911
11972,332.884
11974,332.856
11976,333.018
11978,333.18
11980,333.342
11982,333.096
11984,332.849
11986,332.603
11988,332.532
11990,332.461
11992,332.39
11994,332.381
11996,332.371
11998,332.362
12000,332.429
12002,332.495
12004,332.562
12006,332.618
12008,332.674
12010,332.73
12012,332.467
12014,332.204
12016,331.941
12018,332.066
12020,332.192
12022,332.317
12024,332.311
12026,332.304
12028,332.298
12030,332.243
12032,332.188
12034,332.133
12036,332.176
12038,332.22
12040,332.263
12042,332.345
12044,332.426
12046,332.508
12048,332.168
12050,331.828
12052,331.488
12054,331.614
12056,331.739
12058,331.865
12060,331.986
12062,332.106
12064,332.227
12066,332.102
12068,331.978
12070,331.853
12072,331.816
12074,331.778
12076,331.741
12078,331.659
12080,331.577
12082,331.495
12084,331.702
12086,331.909
12088,332.116
12090,331.894
12092,331.671
12094,331.449
12096,331.558
12098,331.666
12100,331.775
12102,331.647
12104,331.519
12106,331.391
12108,331.198
12110,331.006
12112,330.813
12114,330.835
12116,330.857
12118,330.879
12120,330.725
12122,330.57
12124,330.416
12126,330.357
12128,330.297
12130,330.238
12132,330.347
12134,330.457
12136,330.566
12138,330.574
12140,330.581
12142,330.589
12144,330.452
12146,330.315
12148,330.178
12150,330.216
12152,330.253
12154,330.291
12156,330.192
12158,330.092
12160,329.993
12162,330.06
12164,330.126
12166,330.193
12168,330.164
12170,330.135
12172,330.106
12174,330.104
12176,330.103
12178,330.101
12180,330.016
12182,329.932
12184,329.847
12186,329.806
12188,329.766
12190,329.725
12192,329.896
12194,330.067
12196,330.238
12198,330.029
12200,329.819
12202,329.61
12204,329.654
12206,329.697
12208,329.741
12210,329.676
12212,329.61
12214,329.545
12216,329.55
12218,329.554
12220,329.559
12222,329.595
12224,329.63
12226,329.666
12228,329.591
12230,329.516
12232,329.441
12234,329.324
12236,329.208
12238,329.091
12240,329.013
12242,328.936
12244,328.858
12246,328.783
12248,328.707
12250,328.632
12252,328.626
12254,328.619
12256,328.613
12258,328.799
12260,328.984
12262,329.17
12264,328.927
12266,328.684
12268,328.441
12270,328.601
12272,328.762
12274,328.922
12276,328.762
12278,328.602
12280,328.442
12282,328.368
12284,328.293
12286,328.219
12288,328.175
12290,328.13
12292,328.086
12294,328.109
12296,328.132
12298,328.155
12300,328.098
12600,330.831
12602,330.831
12604,330.831
12606,331.201
12608,331.571
12610,331.941
12612,331.82
12614,331.699
12616,331.578
12618,331.458
12620,331.337
12622,331.217
12624,331.035
12626,330.854
12628,330.672
12630,330.75
12632,330.828
12634,330.906
12636,330.898
12638,330.889
12640,330.881
12642,330.846
12644,330.811
12646,330.776
12648,330.904
12650,331.031
12652,331.159
12654,331.111
12656,331.063
12658,331.015
12660,330.767
12662,330.52
12664,330.272
12666,330.277
12668,330.282
12670,330.287
12672,330.538
12674,330.788
12676,331.039
12678,330.857
12680,330.676
12682,330.494
12684,330.609
12686,330.723
12688,330.838
12690,330.792
12692,330.746
12694,330.7
12696,330.594
12698,330.487
12700,330.381
12702,330.146
12704,329.911
12706,329.676
12708,329.823
12710,329.97
12712,330.117
12714,329.862
12716,329.607
12718,329.352
12720,329.481
12722,329.609
12724,329.738
12726,329.832
12728,329.926
12730,330.02
12732,329.878
12734,329.737
12736,329.595
12738,329.571
12740,329.546
12742,329.522
12744,329.654
12746,329.786
12748,329.918
12750,329.789
12752,329.661
12754,329.532
12756,329.456
12758,329.381
12760,329.305
12762,329.212
12764,329.12
12766,329.027
12768,329.054
12770,329.08
12772,329.107
12774,329.103
12776,329.1
12778,329.096
12780,329.287
12782,329.478
12784,329.669
12786,329.176
12788,328.682
12790,328.189
12792,328.336
12794,328.482
12796,328.629
12798,328.687
12800,328.744
12802,328.802
12804,328.768
12806,328.734
12808,328.7
12810,328.537
12812,328.374
12814,328.211
12816,328.245
12818,328.279
12820,328.313
12822,328.168
12824,328.022
12826,327.877
12828,327.821
12830,327.764
12832,327.708
12834,327.679
12836,327.65
12838,327.621
12840,327.828
12842,328.034
12844,328.241
12846,328.16
12848,328.08
12850,327.999
12852,328.052
12854,328.105
12856,328.158
12858,328.035
12860,327.913
12862,327.79
12864,327.724
12866,327.659
12868,327.593
12870,327.685
12872,327.778
12874,327.87
12876,327.598
12878,327.326
12880,327.054
12882,327.212
12884,327.371
12886,327.529
12888,327.381
12890,327.234
12892,327.086
12894,327.168
12896,327.249
12898,327.331
12900,327.434
12902,327.536
12904,327.639
12906,327.5
12908,327.361
12910,327.222
12912,327.09
12914,326.959
12916,326.827
12918,326.721
12920,326.615
12922,326.509
12924,326.622
12926,326.736
12928,326.849
12930,326.918
12932,326.988
12934,327.057
12936,326.936
12938,326.816
12940,326.695
12942,326.656
12944,326.616
12946,326.577
12948,326.696
12950,326.815
12952,326.934
12954,326.671
12956,326.409
12958,326.146
12960,326.096
12962,326.045
12964,325.995
12966,326.04
12968,326.084
12970,326.129
12972,326.133
12974,326.138
12976,326.142
12978,326.041
12980,325.941
12982,325.84
12984,325.891
12986,325.943
12988,325.994
12990,326.117
12992,326.241
12994,326.364
12996,326.323
12998,326.282
13000,326.241
13002,326.08
13004,325.92
13006,325.759
13008,325.651
13010,325.543
13012,325.435
13014,325.421
13016,325.408
13018,325.394
13020,325.393
13022,325.392
13024,325.391
13026,325.257
13028,325.123
13030,324.989
13032,325.149
13034,325.31
13036,325.47
13038,325.418
13040,325.366
13042,325.314
13044,325.248
13046,325.182
13048,325.116
13050,325.199
13052,325.283
13054,325.366
13056,325.378
13058,325.391
13060,325.403
13062,325.257
13064,325.111
13066,324.965
13068,324.751
13070,324.538
13072,324.324
13074,324.585
13076,324.845
13078,325.106
13080,325.03
13082,324.954
13084,324.878
13086,324.792
13088,324.706
13090,324.62
13092,324.827
13094,325.035
13096,325.242
13098,324.819
13100,324.397
13102,323.974
13104,324.198
13106,324.423
13108,324.647
13110,324.597
13112,324.546
13114,324.496
13116,324.321
13118,324.146
13120,323.971
13122,324.233
13124,324.494
13126,324.756
13128,324.518
13130,324.281
13132,324.043
13134,323.98
13136,323.918
13138,323.855
13140,323.971
13142,324.088
13144,324.204
13146,323.899
13148,323.594
13150,323.289
13152,323.552
13154,323.815
13156,324.078
13158,323.813
13160,323.549
13162,323.284
13164,323.43
13166,323.577
13168,323.723
13170,323.574
13172,323.426
13174,323.277
13176,323.215
13178,323.153
13180,323.091
13182,323.172
13184,323.253
13186,323.334
13188,323.225
13190,323.115
13192,323.006
13194,322.97
13196,322.935
13198,322.899
13200,322.898
13500,325.578
13502,325.578
13504,325.578
13506,325.914
13508,326.25
13510,326.586
13512,326.482
13514,326.378
13516,326.274
13518,326.351
13520,326.427
13522,326.504
13524,326.527
13526,326.549
13528,326.572
13530,326.466
13532,326.361
13534,326.255
13536,326.2
13538,326.146
13540,326.091
13542,325.993
13544,325.896
13546,325.798
13548,325.867
13550,325.937
13552,326.006
13554,325.873
13556,325.74
13558,325.607
13560,325.473
13562,325.339
13564,325.205
13566,325.158
13568,325.112
13570,325.065
13572,325.285
13574,325.506
13576,325.726
13578,325.765
13580,325.804
13582,325.843
13584,325.728
13586,325.614
13588,325.499
13590,325.337
13592,325.176
13594,325.014
13596,325.095
13598,325.175
13600,325.256
13602,325.137
13604,325.018
13606,324.899
13608,324.94
13610,324.98
13612,325.021
13614,324.978
13616,324.934
13618,324.891
13620,324.863
13622,324.835
13624,324.807
13626,324.691
13628,324.575
13630,324.459
13632,324.408
13634,324.357
13636,324.306
13638,324.458
13640,324.61
13642,324.762
13644,324.489
13646,324.215
13648,323.942
13650,324.004
13652,324.066
13654,324.128
13656,324.163
13658,324.198
13660,324.233
13662,324.127
13664,324.02
13666,323.914
13668,323.703
13670,323.491
13672,323.28
13674,323.563
13676,323.846
13678,324.129
13680,323.95
13682,323.771
13684,323.592
13686,323.707
13688,323.821
13690,323.936
13692,323.709
13694,323.482
13696,323.255
13698,323.373
13700,323.491
13702,323.609
13704,323.539
13706,323.468
13708,323.398
13710,323.312
13712,323.227
13714,323.141
13716,323.2
13718,323.259
13720,323.318
13722,323.355
13724,323.392
13726,323.429
13728,323.29
13730,323.151
13732,323.012
13734,322.928
13736,322.843
13738,322.759
13740,322.863
13742,322.968
13744,323.072
13746,323.008
13748,322.945
13750,322.881
13752,322.775
13754,322.67
13756,322.564
13758,322.638
13760,322.713
13762,322.787
13764,322.737
13766,322.687
13768,322.637
13770,322.498
13772,322.359
13774,322.22
13776,322.383
13778,322.545
13780,322.708
13782,322.48
13784,322.251
13786,322.023
13788,322.158
13790,322.294
13792,322.429
13794,322.255
13796,322.081
13798,321.907
13800,322.091
13802,322.274
13804,322.458
13806,322.428
13808,322.398
13810,322.368
13812,322.24
13814,322.112
13816,321.984
13818,321.882
13820,321.781
13822,321.679
13824,321.864
13826,322.048
13828,322.233
13830,322.218
13832,322.202
13834,322.187
13836,322.296
13838,322.404
13840,322.513
13842,322.21
13844,321.908
13846,321.605
13848,321.501
13850,321.398
13852,321.294
13854,321.414
13856,321.535
13858,321.655
13860,321.67
13862,321.684
13864,321.699
13866,321.518
13868,321.336
13870,321.155
13872,321.258
13874,321.362
13876,321.465
13878,321.253
13880,321.042
13882,320.83
13884,320.865
13886,320.901
13888,320.936
13890,321.042
13892,321.147
13894,321.253
13896,321.413
13898,321.573
13900,321.733
13902,321.561
13904,321.389
13906,321.217
13908,321.135
13910,321.052
13912,320.97
13914,320.907
13916,320.845
13918,320.782
13920,321.073
13922,321.364
13924,321.655
13926,321.347
13928,321.038
13930,320.73
13932,320.518
13934,320.305
13936,320.093
13938,320.358
13940,320.624
13942,320.889
13944,321.043
13946,321.196
13948,321.35
13950,321.068
13952,320.786
13954,320.504
13956,320.773
13958,321.042
13960,321.311
13962,321.165
13964,321.018
13966,320.872
13968,320.729
13970,320.587
13972,320.444
13974,320.481
13976,320.518
13978,320.555
13980,320.325
13982,320.094
13984,319.864
13986,320.112
13988,320.361
13990,320.609
13992,320.471
13994,320.332
13996,320.194
13998,320.176
14000,320.157
14002,320.139
14004,320.071
14006,320.002
14008,319.934
14010,320.033
14012,320.132
14014,320.231
14016,320.181
14018,320.132
14020,320.082
14022,320.094
14024,320.107
14026,320.119
14028,320.027
14030,319.934
14032,319.842
14034,319.977
14036,320.112
14038,320.247
14040,320.115
14042,319.982
14044,319.85
14046,319.781
14048,319.712
14050,319.643
14052,319.814
14054,319.986
14056,320.157
14058,320.061
14060,319.965
14062,319.869
14064,319.796
14066,319.723
14068,319.65
14070,319.626
14072,319.603
14074,319.579
14076,319.624
14078,319.668
14080,319.713
14082,319.678
14084,319.644
14086,319.609
14088,319.649
14090,319.69
14092,319.73
14094,319.694
14096,319.657
14098,319.621
14100,319.512
