"Time.sec.","Intensity"
0,209.342
2,209.342
4,209.342
6,209.067
8,208.791
10,208.516
12,208.796
14,209.075
16,209.355
18,209.052
20,208.749
22,208.446
24,208.489
26,208.533
28,208.576
30,207.949
32,207.323
34,206.696
36,206.928
38,207.16
40,207.392
42,207.193
44,206.995
46,206.796
48,206.883
50,206.97
52,207.057
54,206.991
56,206.924
58,206.858
60,206.933
62,207.007
64,207.082
66,206.642
68,206.201
70,205.761
72,205.763
74,205.764
76,205.766
78,205.889
80,206.012
82,206.135
84,205.715
86,205.295
88,204.875
90,205.318
92,205.762
94,206.205
96,205.848
98,205.49
100,205.133
102,205.099
104,205.064
106,205.03
108,204.88
110,204.73
112,204.58
114,204.607
116,204.634
118,204.661
120,204.45
122,204.24
124,204.029
126,204.231
128,204.432
130,204.634
132,204.358
134,204.081
136,203.805
138,203.915
140,204.024
142,204.134
144,203.521
146,202.907
148,202.294
150,202.58
152,202.867
154,203.153
156,202.883
158,202.614
160,202.344
162,202.341
164,202.339
166,202.336
168,202.284
170,202.231
172,202.179
174,202.251
176,202.322
178,202.394
180,202.426
182,202.459
184,202.491
186,202.111
188,201.731
190,201.351
192,201.456
194,201.561
196,201.666
198,201.634
200,201.603
202,201.571
204,201.436
206,201.302
208,201.167
210,201.145
212,201.123
214,201.101
216,200.851
218,200.601
220,200.351
222,200.745
224,201.138
226,201.532
228,201.187
230,200.842
232,200.497
234,200.233
236,199.969
238,199.705
240,199.733
242,199.761
244,199.789
246,199.867
248,199.944
250,200.022
252,199.867
254,199.711
256,199.556
258,199.421
260,199.287
262,199.152
264,199.175
266,199.197
268,199.22
270,198.975
272,198.729
274,198.484
276,198.531
278,198.579
280,198.626
282,198.094
284,197.563
286,197.031
288,197.323
290,197.615
292,197.907
294,197.614
296,197.321
298,197.028
300,197.206
302,197.384
304,197.562
306,197.612
308,197.662
310,197.712
312,197.487
314,197.263
316,197.038
318,197.144
320,197.251
322,197.357
324,196.876
326,196.394
328,195.913
330,196.356
332,196.798
334,197.241
336,196.967
338,196.693
340,196.419
342,196.054
344,195.69
346,195.325
348,195.429
350,195.532
352,195.636
354,195.781
356,195.926
358,196.071
360,195.567
362,195.062
364,194.558
366,194.817
368,195.076
370,195.335
372,195.203
374,195.07
376,194.938
378,194.819
380,194.699
382,194.58
384,194.264
386,193.948
388,193.632
390,193.676
392,193.719
394,193.763
396,193.74
398,193.716
400,193.693
402,193.69
404,193.686
406,193.683
408,193.722
410,193.762
412,193.801
414,193.567
416,193.334
418,193.1
420,193.206
422,193.313
424,193.419
426,193.342
428,193.266
430,193.189
432,192.925
434,192.661
436,192.397
438,192.404
440,192.412
442,192.419
444,192.311
446,192.203
448,192.095
450,191.964
452,191.833
454,191.702
456,191.741
458,191.781
460,191.82
462,191.452
464,191.085
466,190.717
468,190.832
470,190.948
472,191.063
474,190.856
476,190.649
478,190.442
480,190.43
482,190.419
484,190.407
486,190.429
488,190.451
490,190.473
492,190.531
494,190.589
496,190.647
498,190.732
500,190.818
502,190.903
504,190.764
506,190.626
508,190.487
510,190.348
512,190.21
514,190.071
516,189.612
518,189.154
520,188.695
522,188.843
524,188.992
526,189.14
528,189.382
530,189.625
532,189.867
534,189.44
536,189.013
538,188.586
540,188.652
542,188.717
544,188.783
546,188.549
548,188.315
550,188.081
552,188.325
554,188.568
556,188.812
558,188.733
560,188.654
562,188.575
564,188.38
566,188.186
568,187.991
570,187.92
572,187.85
574,187.779
576,187.643
578,187.506
580,187.37
582,187.35
584,187.329
586,187.309
588,186.843
590,186.376
592,185.91
594,186.097
596,186.284
598,186.471
600,186.273
900,180.161
902,180.161
904,180.161
906,180.213
908,180.264
910,180.316
912,180.109
914,179.902
916,179.695
918,179.688
920,179.68
922,179.673
924,179.492
926,179.31
928,179.129
930,179.095
932,179.062
934,179.028
936,178.869
938,178.711
940,178.552
942,178.658
944,178.765
946,178.871
948,178.581
950,178.292
952,178.002
954,178.199
956,178.396
958,178.593
960,178.494
962,178.395
964,178.296
966,178.166
968,178.035
970,177.905
972,177.773
974,177.641
976,177.509
978,177.52
980,177.532
982,177.543
984,177.47
986,177.396
988,177.323
990,177.362
992,177.4
994,177.439
996,177.356
998,177.273
1000,177.19
1002,176.911
1004,176.632
1006,176.353
1008,176.291
1010,176.228
1012,176.166
1014,176.255
1016,176.345
1018,176.434
1020,176.391
1022,176.347
1024,176.304
1026,175.997
1028,175.69
1030,175.383
1032,175.461
1034,175.538
1036,175.616
1038,175.654
1040,175.693
1042,175.731
1044,175.579
1046,175.427
1048,175.275
1050,175.194
1052,175.112
1054,175.031
1056,174.945
1058,174.858
1060,174.772
1062,174.707
1064,174.643
1066,174.578
1068,174.638
1070,174.698
1072,174.758
1074,174.67
1076,174.583
1078,174.495
1080,174.371
1082,174.246
1084,174.122
1086,174.179
1088,174.237
1090,174.294
1092,174.074
1094,173.855
1096,173.635
1098,173.487
1100,173.34
1102,173.192
1104,173.349
1106,173.506
1108,173.663
1110,173.413
1112,173.163
1114,172.913
1116,172.922
1118,172.931
1120,172.94
1122,172.668
1124,172.397
1126,172.125
1128,172.221
1130,172.317
1132,172.413
1134,172.421
1136,172.428
1138,172.436
1140,172.33
1142,172.224
1144,172.118
1146,172.06
1148,172.001
1150,171.943
1152,171.702
1154,171.46
1156,171.219
1158,171.356
1160,171.492
1162,171.629
1164,171.395
1166,171.16
1168,170.926
1170,171.04
1172,171.155
1174,171.269
1176,171.07
1178,170.87
1180,170.671
1182,170.52
1184,170.37
1186,170.219
1188,170.094
1190,169.969
1192,169.844
1194,169.951
1196,170.058
1198,170.165
1200,170.136
1202,170.107
1204,170.078
1206,170.031
1208,169.983
1210,169.936
1212,169.603
1214,169.27
1216,168.937
1218,169.177
1220,169.417
1222,169.657
1224,169.567
1226,169.478
1228,169.388
1230,169.357
1232,169.325
1234,169.294
1236,169.276
1238,169.259
1240,169.241
1242,168.779
1244,168.317
1246,167.855
1248,168.012
1250,168.17
1252,168.327
1254,168.4
1256,168.474
1258,168.547
1260,168.368
1262,168.188
1264,168.009
1266,167.965
1268,167.922
1270,167.878
1272,167.761
1274,167.643
1276,167.526
1278,167.396
1280,167.266
1282,167.136
1284,166.947
1286,166.759
1288,166.57
1290,166.702
1292,166.834
1294,166.966
1296,166.982
1298,166.998
1300,167.014
1302,166.803
1304,166.591
1306,166.38
1308,166.369
1310,166.358
1312,166.347
1314,166.491
1316,166.635
1318,166.779
1320,166.547
1322,166.316
1324,166.084
1326,166.063
1328,166.041
1330,166.02
1332,165.785
1334,165.549
1336,165.314
1338,165.441
1340,165.568
1342,165.695
1344,165.553
1346,165.41
1348,165.268
1350,165.307
1352,165.347
1354,165.386
1356,165.342
1358,165.297
1360,165.253
1362,164.86
1364,164.466
1366,164.073
1368,164.301
1370,164.529
1372,164.757
1374,164.576
1376,164.395
1378,164.214
1380,164.161
1382,164.107
1384,164.054
1386,164.229
1388,164.404
1390,164.579
1392,164.208
1394,163.838
1396,163.467
1398,163.41
1400,163.354
1402,163.297
1404,163.207
1406,163.118
1408,163.028
1410,163.24
1412,163.452
1414,163.664
1416,163.615
1418,163.565
1420,163.516
1422,163.28
1424,163.044
1426,162.808
1428,162.714
1430,162.62
1432,162.526
1434,162.505
1436,162.484
1438,162.463
1440,162.373
1442,162.284
1444,162.194
1446,162.193
1448,162.191
1450,162.19
1452,162.127
1454,162.065
1456,162.002
1458,161.873
1460,161.743
1462,161.614
1464,161.72
1466,161.826
1468,161.932
1470,161.619
1472,161.305
1474,160.992
1476,161.044
1478,161.097
1480,161.149
1482,161.181
1484,161.213
1486,161.245
1488,161
1490,160.754
1492,160.509
1494,160.477
1496,160.445
1498,160.413
1500,160.17
1800,155.307
1802,155.307
1804,155.307
1806,155.067
1808,154.828
1810,154.588
1812,154.703
1814,154.819
1816,154.934
1818,155.193
1820,155.453
1822,155.712
1824,155.367
1826,155.021
1828,154.676
1830,154.724
1832,154.772
1834,154.82
1836,154.612
1838,154.403
1840,154.195
1842,154.252
1844,154.31
1846,154.367
1848,154.263
1850,154.158
1852,154.054
1854,153.984
1856,153.915
1858,153.845
1860,153.958
1862,154.072
1864,154.185
1866,153.726
1868,153.266
1870,152.807
1872,152.964
1874,153.122
1876,153.279
1878,153.328
1880,153.377
1882,153.426
1884,153.115
1886,152.804
1888,152.493
1890,152.692
1892,152.892
1894,153.091
1896,152.927
1898,152.763
1900,152.599
1902,152.451
1904,152.304
1906,152.156
1908,152.179
1910,152.202
1912,152.225
1914,152.003
1916,151.782
1918,151.56
1920,151.714
1922,151.867
1924,152.021
1926,151.894
1928,151.767
1930,151.64
1932,151.6
1934,151.561
1936,151.521
1938,151.453
1940,151.386
1942,151.318
1944,151.397
1946,151.475
1948,151.554
1950,151.369
1952,151.185
1954,151
1956,150.943
1958,150.885
1960,150.828
1962,150.641
1964,150.455
1966,150.268
1968,150.294
1970,150.32
1972,150.346
1974,150.304
1976,150.262
1978,150.22
1980,150.158
1982,150.095
1984,150.033
1986,149.958
1988,149.884
1990,149.809
1992,149.747
1994,149.684
1996,149.622
1998,149.508
2000,149.393
2002,149.279
2004,149.348
2006,149.417
2008,149.486
2010,149.365
2012,149.243
2014,149.122
2016,149.028
2018,148.933
2020,148.839
2022,148.823
2024,148.808
2026,148.792
2028,148.775
2030,148.758
2032,148.741
2034,148.485
2036,148.229
2038,147.973
2040,148.074
2042,148.174
2044,148.275
2046,148.247
2048,148.22
2050,148.192
2052,148.135
2054,148.079
2056,148.022
2058,147.903
2060,147.784
2062,147.665
2064,147.686
2066,147.707
2068,147.728
2070,147.649
2072,147.571
2074,147.492
2076,147.295
2078,147.099
2080,146.902
2082,146.927
2084,146.953
2086,146.978
2088,146.99
2090,147.003
2092,147.015
2094,147.066
2096,147.116
2098,147.167
2100,147.109
2102,147.052
2104,146.994
2106,146.971
2108,146.949
2110,146.926
2112,146.744
2114,146.563
2116,146.381
2118,146.334
2120,146.288
2122,146.241
2124,146.454
2126,146.668
2128,146.881
2130,146.583
2132,146.286
2134,145.988
2136,145.846
2138,145.704
2140,145.562
2142,145.651
2144,145.741
2146,145.83
2148,145.687
2150,145.543
2152,145.4
2154,145.22
2156,145.041
2158,144.861
2160,145.144
2162,145.427
2164,145.71
2166,145.303
2168,144.897
2170,144.49
2172,144.542
2174,144.593
2176,144.645
2178,144.737
2180,144.828
2182,144.92
2184,144.783
2186,144.646
2188,144.509
2190,144.557
2192,144.606
2194,144.654
2196,144.738
2198,144.822
2200,144.906
2202,144.714
2204,144.522
2206,144.33
2208,144.205
2210,144.079
2212,143.954
2214,143.838
2216,143.721
2218,143.605
2220,143.755
2222,143.905
2224,144.055
2226,143.846
2228,143.638
2230,143.429
2232,143.258
2234,143.086
2236,142.915
2238,143.025
2240,143.136
2242,143.246
2244,143.256
2246,143.265
2248,143.275
2250,143.016
2252,142.758
2254,142.499
2256,142.593
2258,142.687
2260,142.781
2262,142.916
2264,143.052
2266,143.187
2268,142.887
2270,142.587
2272,142.287
2274,142.201
2276,142.114
2278,142.028
2280,142.063
2282,142.099
2284,142.134
2286,142.167
2288,142.201
2290,142.234
2292,142.124
2294,142.014
2296,141.904
2298,141.838
2300,141.773
2302,141.707
2304,141.793
2306,141.879
2308,141.965
2310,141.792
2312,141.618
2314,141.445
2316,141.367
2318,141.289
2320,141.211
2322,141.124
2324,141.037
2326,140.95
2328,141.019
2330,141.088
2332,141.157
2334,141.034
2336,140.912
2338,140.789
2340,140.947
2342,141.106
2344,141.264
2346,141.096
2348,140.928
2350,140.76
2352,140.616
2354,140.473
2356,140.329
2358,140.226
2360,140.123
2362,140.02
2364,140.064
2366,140.107
2368,140.151
2370,140.439
2372,140.728
2374,141.016
2376,140.774
2378,140.533
2380,140.291
2382,140.006
2384,139.721
2386,139.436
2388,139.477
2390,139.517
2392,139.558
2394,139.565
2396,139.571
2398,139.578
2400,139.709
2700,136.673
2702,136.673
2704,136.673
2706,136.369
2708,136.064
2710,135.76
2712,135.767
2714,135.774
2716,135.781
2718,135.786
2720,135.791
2722,135.796
2724,135.663
2726,135.531
2728,135.398
2730,135.672
2732,135.946
2734,136.22
2736,135.913
2738,135.607
2740,135.3
2742,135.426
2744,135.552
2746,135.678
2748,135.365
2750,135.052
2752,134.739
2754,135.062
2756,135.385
2758,135.708
2760,135.394
2762,135.079
2764,134.765
2766,135.021
2768,135.278
2770,135.534
2772,135.167
2774,134.8
2776,134.433
2778,134.645
2780,134.856
2782,135.068
2784,135.211
2786,135.353
2788,135.496
2790,135.091
2792,134.685
2794,134.28
2796,134.259
2798,134.238
2800,134.217
2802,134.199
2804,134.182
2806,134.164
2808,134.223
2810,134.281
2812,134.34
2814,134.275
2816,134.211
2818,134.146
2820,134.019
2822,133.891
2824,133.764
2826,133.72
2828,133.676
2830,133.632
2832,133.581
2834,133.53
2836,133.479
2838,133.448
2840,133.416
2842,133.385
2844,133.29
2846,133.195
2848,133.1
2850,133.145
2852,133.191
2854,133.236
2856,133.246
2858,133.257
2860,133.267
2862,133.304
2864,133.342
2866,133.379
2868,133.095
2870,132.812
2872,132.528
2874,132.682
2876,132.836
2878,132.99
2880,132.901
2882,132.811
2884,132.722
2886,132.69
2888,132.658
2890,132.626
2892,132.56
2894,132.493
2896,132.427
2898,132.707
2900,132.987
2902,133.267
2904,132.93
2906,132.593
2908,132.256
2910,132.025
2912,131.795
2914,131.564
2916,131.826
2918,132.087
2920,132.349
2922,132.17
2924,131.99
2926,131.811
2928,131.881
2930,131.952
2932,132.022
2934,131.925
2936,131.828
2938,131.731
2940,131.52
2942,131.309
2944,131.098
2946,130.972
2948,130.846
2950,130.72
2952,130.905
2954,131.089
2956,131.274
2958,131.362
2960,131.451
2962,131.539
2964,131.484
2966,131.43
2968,131.375
2970,131.16
2972,130.944
2974,130.729
2976,130.649
2978,130.568
2980,130.488
2982,130.628
2984,130.767
2986,130.907
2988,130.776
2990,130.646
2992,130.515
2994,130.324
2996,130.134
2998,129.943
3000,129.803
3002,129.663
3004,129.523
3006,129.815
3008,130.106
3010,130.398
3012,130.316
3014,130.233
3016,130.151
3018,129.969
3020,129.787
3022,129.605
3024,129.742
3026,129.879
3028,130.016
3030,129.763
3032,129.51
3034,129.257
3036,129.439
3038,129.621
3040,129.803
3042,129.706
3044,129.608
3046,129.511
3048,129.308
3050,129.105
3052,128.902
3054,128.955
3056,129.009
3058,129.062
3060,129.186
3062,129.311
3064,129.435
3066,129.221
3068,129.006
3070,128.792
3072,128.745
3074,128.697
3076,128.65
3078,128.631
3080,128.613
3082,128.594
3084,128.539
3086,128.484
3088,128.429
3090,128.479
3092,128.53
3094,128.58
3096,128.54
3098,128.5
3100,128.46
3102,128.417
3104,128.373
3106,128.33
3108,128.148
3110,127.965
3112,127.783
3114,127.747
3116,127.71
3118,127.674
3120,127.707
3122,127.741
3124,127.774
3126,127.757
3128,127.741
3130,127.724
3132,127.578
3134,127.433
3136,127.287
3138,127.56
3140,127.832
3142,128.105
3144,127.902
3146,127.699
3148,127.496
3150,127.535
3152,127.573
3154,127.612
3156,127.406
3158,127.2
3160,126.994
3162,127.011
3164,127.029
3166,127.046
3168,127.025
3170,127.003
3172,126.982
3174,126.936
3176,126.889
3178,126.843
3180,126.867
3182,126.891
3184,126.915
3186,126.833
3188,126.75
3190,126.668
3192,126.739
3194,126.811
3196,126.882
3198,126.771
3200,126.661
3202,126.55
3204,126.513
3206,126.477
3208,126.44
3210,126.468
3212,126.496
3214,126.524
3216,126.35
3218,126.175
3220,126.001
3222,126.051
3224,126.1
3226,126.15
3228,126.114
3230,126.078
3232,126.042
3234,125.818
3236,125.593
3238,125.369
3240,125.478
3242,125.586
3244,125.695
3246,125.682
3248,125.668
3250,125.655
3252,125.531
3254,125.407
3256,125.283
3258,125.219
3260,125.154
3262,125.09
3264,125.065
3266,125.039
3268,125.014
3270,125.045
3272,125.075
3274,125.106
3276,124.97
3278,124.835
3280,124.699
3282,124.872
3284,125.046
3286,125.219
3288,125.087
3290,124.954
3292,124.822
3294,124.54
3296,124.259
3298,123.977
3300,124.177
3600,123.617
3602,123.617
3604,123.617
3606,123.742
3608,123.867
3610,123.992
3612,123.869
3614,123.745
3616,123.622
3618,123.484
3620,123.347
3622,123.209
3624,123.011
3626,122.813
3628,122.615
3630,122.802
3632,122.989
3634,123.176
3636,122.94
3638,122.705
3640,122.469
3642,122.722
3644,122.975
3646,123.228
3648,122.97
3650,122.711
3652,122.453
3654,122.49
3656,122.528
3658,122.565
3660,122.718
3662,122.87
3664,123.023
3666,122.717
3668,122.412
3670,122.106
3672,122.077
3674,122.049
3676,122.02
3678,122.037
3680,122.054
3682,122.071
3684,122.222
3686,122.374
3688,122.525
3690,122.455
3692,122.386
3694,122.316
3696,122.018
3698,121.721
3700,121.423
3702,121.566
3704,121.709
3706,121.852
3708,121.866
3710,121.88
3712,121.894
3714,121.805
3716,121.717
3718,121.628
3720,121.432
3722,121.235
3724,121.039
3726,121.202
3728,121.365
3730,121.528
3732,121.314
3734,121.101
3736,120.887
3738,120.879
3740,120.871
3742,120.863
3744,121.074
3746,121.286
3748,121.497
3750,121.386
3752,121.276
3754,121.165
3756,121.098
3758,121.032
3760,120.965
3762,120.783
3764,120.602
3766,120.42
3768,120.593
3770,120.765
3772,120.938
3774,120.93
3776,120.922
3778,120.914
3780,120.917
3782,120.919
3784,120.922
3786,120.754
3788,120.585
3790,120.417
3792,120.569
3794,120.721
3796,120.873
3798,120.551
3800,120.23
3802,119.908
3804,119.819
3806,119.729
3808,119.64
3810,119.611
3812,119.581
3814,119.552
3816,119.632
3818,119.711
3820,119.791
3822,119.645
3824,119.5
3826,119.354
3828,119.499
3830,119.644
3832,119.789
3834,119.726
3836,119.663
3838,119.6
3840,119.281
3842,118.963
3844,118.644
3846,118.93
3848,119.215
3850,119.501
3852,119.398
3854,119.296
3856,119.193
3858,119.269
3860,119.346
3862,119.422
3864,119.307
3866,119.192
3868,119.077
3870,119.163
3872,119.248
3874,119.334
3876,119.323
3878,119.312
3880,119.301
3882,119.389
3884,119.476
3886,119.564
3888,119.348
3890,119.131
3892,118.915
3894,118.814
3896,118.712
3898,118.611
3900,118.448
3902,118.286
3904,118.123
3906,118.318
3908,118.514
3910,118.709
3912,118.765
3914,118.821
3916,118.877
3918,118.524
3920,118.17
3922,117.817
3924,117.96
3926,118.102
3928,118.245
3930,118.358
3932,118.471
3934,118.584
3936,118.398
3938,118.212
3940,118.026
3942,117.926
3944,117.825
3946,117.725
3948,117.749
3950,117.774
3952,117.798
3954,117.795
3956,117.791
3958,117.788
3960,117.538
3962,117.288
3964,117.038
3966,117.2
3968,117.361
3970,117.523
3972,117.246
3974,116.968
3976,116.691
3978,116.991
3980,117.29
3982,117.59
3984,117.681
3986,117.772
3988,117.863
3990,117.586
3992,117.308
3994,117.031
3996,117.019
3998,117.006
4000,116.994
4002,117.142
4004,117.291
4006,117.439
4008,117.431
4010,117.424
4012,117.416
4014,117.293
4016,117.169
4018,117.046
4020,116.87
4022,116.693
4024,116.517
4026,116.456
4028,116.396
4030,116.335
4032,116.416
4034,116.496
4036,116.577
4038,116.43
4040,116.282
4042,116.135
4044,116.01
4046,115.884
4048,115.759
4050,115.961
4052,116.162
4054,116.364
4056,116.37
4058,116.377
4060,116.383
4062,116.212
4064,116.041
4066,115.87
4068,115.918
4070,115.967
4072,116.015
4074,116.148
4076,116.28
4078,116.413
4080,116.335
4082,116.256
4084,116.178
4086,115.925
4088,115.673
4090,115.42
4092,115.472
4094,115.524
4096,115.576
4098,115.583
4100,115.59
4102,115.597
4104,115.652
4106,115.706
4108,115.761
4110,115.779
4112,115.798
4114,115.816
4116,115.674
4118,115.533
4120,115.391
4122,115.473
4124,115.554
4126,115.636
4128,115.635
4130,115.634
4132,115.633
4134,115.408
4136,115.184
4138,114.959
4140,114.96
4142,114.961
4144,114.962
4146,115.001
4148,115.039
4150,115.078
4152,115.033
4154,114.989
4156,114.944
4158,114.776
4160,114.608
4162,114.44
4164,114.659
4166,114.878
4168,115.097
4170,114.911
4172,114.724
4174,114.538
4176,114.664
4178,114.791
4180,114.917
4182,114.76
4184,114.603
4186,114.446
4188,114.415
4190,114.383
4192,114.352
4194,114.272
4196,114.192
4198,114.112
4200,113.932
4500,114.072
4502,114.072
4504,114.072
4506,113.847
4508,113.623
4510,113.398
4512,113.533
4514,113.668
4516,113.803
4518,113.645
4520,113.487
4522,113.329
4524,113.33
4526,113.332
4528,113.333
4530,113.42
4532,113.506
4534,113.593
4536,113.549
4538,113.505
4540,113.461
4542,113.452
4544,113.444
4546,113.435
4548,113.406
4550,113.378
4552,113.349
4554,113.358
4556,113.367
4558,113.376
4560,113.208
4562,113.039
4564,112.871
4566,112.918
4568,112.965
4570,113.012
4572,113.029
4574,113.046
4576,113.063
4578,113.054
4580,113.046
4582,113.037
4584,113.07
4586,113.102
4588,113.135
4590,113.026
4592,112.918
4594,112.809
4596,112.655
4598,112.5
4600,112.346
4602,112.511
4604,112.677
4606,112.842
4608,112.772
4610,112.701
4612,112.631
4614,112.526
4616,112.42
4618,112.315
4620,112.301
4622,112.286
4624,112.272
4626,112.301
4628,112.329
4630,112.358
4632,112.139
4634,111.921
4636,111.702
4638,111.804
4640,111.906
4642,112.008
4644,112.032
4646,112.057
4648,112.081
4650,112.159
4652,112.236
4654,112.314
4656,112.174
4658,112.034
4660,111.894
4662,111.814
4664,111.733
4666,111.653
4668,111.439
4670,111.225
4672,111.011
4674,111.188
4676,111.364
4678,111.541
4680,111.358
4682,111.174
4684,110.991
4686,111.149
4688,111.306
4690,111.464
4692,111.368
4694,111.273
4696,111.177
4698,111.237
4700,111.298
4702,111.358
4704,111.384
4706,111.409
4708,111.435
4710,111.236
4712,111.037
4714,110.838
4716,110.927
4718,111.016
4720,111.105
4722,111.133
4724,111.16
4726,111.188
4728,111.055
4730,110.921
4732,110.788
4734,110.686
4736,110.584
4738,110.482
4740,110.679
4742,110.876
4744,111.073
4746,111.028
4748,110.984
4750,110.939
4752,110.739
4754,110.539
4756,110.339
4758,110.461
4760,110.583
4762,110.705
4764,110.718
4766,110.732
4768,110.745
4770,110.553
4772,110.361
4774,110.169
4776,110.21
4778,110.251
4780,110.292
4782,110.425
4784,110.558
4786,110.691
4788,110.592
4790,110.493
4792,110.394
4794,110.269
4796,110.144
4798,110.019
4800,109.99
4802,109.96
4804,109.931
4806,109.904
4808,109.877
4810,109.85
4812,109.831
4814,109.812
4816,109.793
4818,109.744
4820,109.696
4822,109.647
4824,109.649
4826,109.65
4828,109.652
4830,109.579
4832,109.506
4834,109.433
4836,109.466
4838,109.499
4840,109.532
4842,109.405
4844,109.277
4846,109.15
4848,109.222
4850,109.293
4852,109.365
4854,109.42
4856,109.474
4858,109.529
4860,109.494
4862,109.46
4864,109.425
4866,109.488
4868,109.55
4870,109.613
4872,109.425
4874,109.236
4876,109.048
4878,109.044
4880,109.041
4882,109.037
4884,109.062
4886,109.088
4888,109.113
4890,109.081
4892,109.049
4894,109.017
4896,109.132
4898,109.248
4900,109.363
4902,109.302
4904,109.24
4906,109.179
4908,108.901
4910,108.624
4912,108.346
4914,108.484
4916,108.622
4918,108.76
4920,108.871
4922,108.981
4924,109.092
4926,108.817
4928,108.541
4930,108.266
4932,108.19
4934,108.115
4936,108.039
4938,108.08
4940,108.122
4942,108.163
4944,108.253
4946,108.344
4948,108.434
4950,108.492
4952,108.551
4954,108.609
4956,108.468
4958,108.328
4960,108.187
4962,108.068
4964,107.949
4966,107.83
4968,107.999
4970,108.169
4972,108.338
4974,108.239
4976,108.141
4978,108.042
4980,108.026
4982,108.009
4984,107.993
4986,107.923
4988,107.853
4990,107.783
4992,107.793
4994,107.804
4996,107.814
4998,107.816
5000,107.818
5002,107.82
5004,107.716
5006,107.613
5008,107.509
5010,107.403
5012,107.297
5014,107.191
5016,107.292
5018,107.394
5020,107.495
5022,107.372
5024,107.249
5026,107.126
5028,107.376
5030,107.625
5032,107.875
5034,107.723
5036,107.572
5038,107.42
5040,107.434
5042,107.449
5044,107.463
5046,107.378
5048,107.293
5050,107.208
5052,107.238
5054,107.268
5056,107.298
5058,107.279
5060,107.26
5062,107.241
5064,107.159
5066,107.078
5068,106.996
5070,107.118
5072,107.24
5074,107.362
5076,107.132
5078,106.903
5080,106.673
5082,106.795
5084,106.917
5086,107.039
5088,106.963
5090,106.886
5092,106.81
5094,106.781
5096,106.753
5098,106.724
5100,106.776
5400,106.962
5402,106.962
5404,106.962
5406,106.704
5408,106.445
5410,106.187
5412,106.176
5414,106.166
5416,106.155
5418,106.041
5420,105.926
5422,105.812
5424,106.023
5426,106.235
5428,106.446
5430,106.253
5432,106.061
5434,105.868
5436,105.923
5438,105.979
5440,106.034
5442,106
5444,105.967
5446,105.933
5448,105.901
5450,105.868
5452,105.836
5454,105.85
5456,105.865
5458,105.879
5460,105.842
5462,105.805
5464,105.768
5466,105.639
5468,105.509
5470,105.38
5472,105.528
5474,105.677
5476,105.825
5478,105.593
5480,105.362
5482,105.13
5484,105.085
5486,105.041
5488,104.996
5490,105.228
5492,105.461
5494,105.693
5496,105.488
5498,105.282
5500,105.077
5502,105.155
5504,105.233
5506,105.311
5508,105.28
5510,105.248
5512,105.217
5514,105.262
5516,105.308
5518,105.353
5520,105.31
5522,105.268
5524,105.225
5526,105.12
5528,105.016
5530,104.911
5532,104.995
5534,105.079
5536,105.163
5538,105.222
5540,105.281
5542,105.34
5544,105.171
5546,105.001
5548,104.832
5550,104.774
5552,104.715
5554,104.657
5556,104.875
5558,105.093
5560,105.311
5562,105.229
5564,105.147
5566,105.065
5568,104.973
5570,104.88
5572,104.788
5574,104.635
5576,104.482
5578,104.329
5580,104.136
5582,103.944
5584,103.751
5586,103.974
5588,104.198
5590,104.421
5592,104.434
5594,104.448
5596,104.461
5598,104.508
5600,104.555
5602,104.602
5604,104.601
5606,104.601
5608,104.6
5610,104.507
5612,104.415
5614,104.322
5616,104.25
5618,104.177
5620,104.105
5622,104.105
5624,104.104
5626,104.104
5628,103.963
5630,103.823
5632,103.682
5634,103.904
5636,104.127
5638,104.349
5640,104.273
5642,104.197
5644,104.121
5646,104.252
5648,104.383
5650,104.514
5652,104.441
5654,104.368
5656,104.295
5658,104.206
5660,104.117
5662,104.028
5664,103.817
5666,103.606
5668,103.395
5670,103.29
5672,103.185
5674,103.08
5676,103.342
5678,103.603
5680,103.865
5682,103.797
5684,103.729
5686,103.661
5688,103.698
5690,103.736
5692,103.773
5694,103.504
5696,103.235
5698,102.966
5700,102.962
5702,102.958
5704,102.954
5706,103.154
5708,103.355
5710,103.555
5712,103.473
5714,103.391
5716,103.309
5718,103.299
5720,103.289
5722,103.279
5724,103.255
5726,103.23
5728,103.206
5730,103.183
5732,103.16
5734,103.137
5736,103.135
5738,103.134
5740,103.132
5742,103.123
5744,103.114
5746,103.105
5748,103.114
5750,103.122
5752,103.131
5754,103.063
5756,102.996
5758,102.928
5760,102.966
5762,103.004
5764,103.042
5766,102.855
5768,102.668
5770,102.481
5772,102.594
5774,102.708
5776,102.821
5778,102.735
5780,102.648
5782,102.562
5784,102.553
5786,102.545
5788,102.536
5790,102.616
5792,102.695
5794,102.775
5796,102.685
5798,102.594
5800,102.504
5802,102.314
5804,102.125
5806,101.935
5808,102.221
5810,102.508
5812,102.794
5814,102.724
5816,102.653
5818,102.583
5820,102.485
5822,102.386
5824,102.288
5826,102.342
5828,102.396
5830,102.45
5832,102.338
5834,102.226
5836,102.114
5838,102.211
5840,102.309
5842,102.406
5844,102.332
5846,102.257
5848,102.183
5850,102.02
5852,101.857
5854,101.694
5856,101.626
5858,101.557
5860,101.489
5862,101.415
5864,101.34
5866,101.266
5868,101.393
5870,101.521
5872,101.648
5874,101.663
5876,101.677
5878,101.692
5880,101.595
5882,101.497
5884,101.4
5886,101.588
5888,101.775
5890,101.963
5892,101.815
5894,101.667
5896,101.519
5898,101.721
5900,101.924
5902,102.126
5904,101.831
5906,101.536
5908,101.241
5910,101.359
5912,101.477
5914,101.595
5916,101.477
5918,101.358
5920,101.24
5922,101.27
5924,101.3
5926,101.33
5928,101.208
5930,101.085
5932,100.963
5934,101.054
5936,101.144
5938,101.235
5940,101.176
5942,101.117
5944,101.058
5946,101.046
5948,101.034
5950,101.022
5952,101.229
5954,101.437
5956,101.644
5958,101.474
5960,101.303
5962,101.133
5964,100.883
5966,100.632
5968,100.382
5970,100.509
5972,100.637
5974,100.764
5976,100.692
5978,100.619
5980,100.547
5982,100.678
5984,100.81
5986,100.941
5988,100.923
5990,100.906
5992,100.888
5994,100.834
5996,100.779
5998,100.725
6000,100.531
6300,100.853
6302,100.853
6304,100.853
6306,100.765
6308,100.678
6310,100.59
6312,100.608
6314,100.625
6316,100.643
6318,100.617
6320,100.592
6322,100.566
6324,100.626
6326,100.687
6328,100.747
6330,100.699
6332,100.65
6334,100.602
6336,100.54
6338,100.477
6340,100.415
6342,100.374
6344,100.332
6346,100.291
6348,100.265
6350,100.24
6352,100.214
6354,100.265
6356,100.315
6358,100.366
6360,100.138
6362,99.911
6364,99.683
6366,99.841
6368,100
6370,100.158
6372,100.191
6374,100.224
6376,100.257
6378,100.204
6380,100.151
6382,100.098
6384,100.186
6386,100.273
6388,100.361
6390,100.398
6392,100.436
6394,100.473
6396,100.395
6398,100.317
6400,100.239
6402,100.043
6404,99.846
6406,99.65
6408,99.611
6410,99.572
6412,99.533
6414,99.61
6416,99.688
6418,99.765
6420,99.626
6422,99.488
6424,99.349
6426,99.477
6428,99.606
6430,99.734
6432,99.709
6434,99.685
6436,99.66
6438,99.624
6440,99.589
6442,99.553
6444,99.488
6446,99.423
6448,99.358
6450,99.414
6452,99.47
6454,99.526
6456,99.392
6458,99.257
6460,99.123
6462,99.149
6464,99.175
6466,99.201
6468,99.06
6470,98.918
6472,98.777
6474,98.769
6476,98.761
6478,98.753
6480,99.022
6482,99.291
6484,99.56
6486,99.459
6488,99.358
6490,99.257
6492,99.221
6494,99.186
6496,99.15
6498,99.216
6500,99.283
6502,99.349
6504,99.166
6506,98.983
6508,98.8
6510,98.912
6512,99.023
6514,99.135
6516,98.913
6518,98.692
6520,98.47
6522,98.413
6524,98.356
6526,98.299
6528,98.445
6530,98.592
6532,98.738
6534,98.593
6536,98.447
6538,98.302
6540,98.261
6542,98.22
6544,98.179
6546,98.219
6548,98.26
6550,98.3
6552,98.256
6554,98.211
6556,98.167
6558,98.298
6560,98.428
6562,98.559
6564,98.372
6566,98.186
6568,97.999
6570,98.034
6572,98.07
6574,98.105
6576,98.049
6578,97.992
6580,97.936
6582,97.893
6584,97.849
6586,97.806
6588,97.841
6590,97.877
6592,97.912
6594,97.91
6596,97.907
6598,97.905
6600,97.816
6602,97.727
6604,97.638
6606,97.622
6608,97.607
6610,97.591
6612,97.652
6614,97.713
6616,97.774
6618,97.836
6620,97.897
6622,97.959
6624,97.873
6626,97.787
6628,97.701
6630,97.665
6632,97.628
6634,97.592
6636,97.538
6638,97.483
6640,97.429
6642,97.275
6644,97.121
6646,96.967
6648,96.971
6650,96.974
6652,96.978
6654,97.162
6656,97.346
6658,97.53
6660,97.461
6662,97.391
6664,97.322
6666,97.3
6668,97.277
6670,97.255
6672,97.308
6674,97.36
6676,97.413
6678,97.381
6680,97.35
6682,97.318
6684,97.324
6686,97.331
6688,97.337
6690,97.269
6692,97.2
6694,97.132
6696,97.012
6698,96.891
6700,96.771
6702,96.783
6704,96.795
6706,96.807
6708,96.708
6710,96.61
6712,96.511
6714,96.449
6716,96.388
6718,96.326
6720,96.36
6722,96.394
6724,96.428
6726,96.411
6728,96.394
6730,96.377
6732,96.371
6734,96.365
6736,96.359
6738,96.292
6740,96.224
6742,96.157
6744,96.181
6746,96.205
6748,96.229
6750,96.225
6752,96.22
6754,96.216
6756,96.197
6758,96.178
6760,96.159
6762,96.243
6764,96.328
6766,96.412
6768,96.363
6770,96.313
6772,96.264
6774,96.085
6776,95.906
6778,95.727
6780,95.613
6782,95.499
6784,95.385
6786,95.485
6788,95.586
6790,95.686
6792,95.525
6794,95.363
6796,95.202
6798,95.278
6800,95.355
6802,95.431
6804,95.473
6806,95.515
6808,95.557
6810,95.542
6812,95.526
6814,95.511
6816,95.576
6818,95.641
6820,95.706
6822,95.773
6824,95.841
6826,95.908
6828,95.682
6830,95.457
6832,95.231
6834,95.316
6836,95.401
6838,95.486
6840,95.391
6842,95.296
6844,95.201
6846,95.215
6848,95.229
6850,95.243
6852,95.35
6854,95.458
6856,95.565
6858,95.335
6860,95.105
6862,94.875
6864,94.888
6866,94.902
6868,94.915
6870,94.98
6872,95.046
6874,95.111
6876,95.192
6878,95.272
6880,95.353
6882,95.235
6884,95.116
6886,94.998
6888,94.896
6890,94.795
6892,94.693
6894,94.62
6896,94.547
6898,94.474
6900,94.543
7200,94.69
7202,94.69
7204,94.69
7206,94.85
7208,95.009
7210,95.169
7212,95.203
7214,95.236
7216,95.27
7218,95.055
7220,94.84
7222,94.625
7224,94.589
7226,94.552
7228,94.516
7230,94.514
7232,94.513
7234,94.511
7236,94.516
7238,94.521
7240,94.526
7242,94.511
7244,94.497
7246,94.482
7248,94.492
7250,94.503
7252,94.513
7254,94.528
7256,94.543
7258,94.558
7260,94.277
7262,93.995
7264,93.714
7266,93.738
7268,93.761
7270,93.785
7272,93.942
7274,94.099
7276,94.256
7278,94.049
7280,93.842
7282,93.635
7284,93.795
7286,93.956
7288,94.116
7290,94.128
7292,94.141
7294,94.153
7296,94.163
7298,94.174
7300,94.184
7302,94.001
7304,93.819
7306,93.636
7308,93.76
7310,93.883
7312,94.007
7314,94.037
7316,94.068
7318,94.098
7320,93.951
7322,93.803
7324,93.656
7326,93.619
7328,93.583
7330,93.546
7332,93.538
7334,93.53
7336,93.522
7338,93.551
7340,93.581
7342,93.61
7344,93.6
7346,93.59
7348,93.58
7350,93.58
7352,93.579
7354,93.579
7356,93.488
7358,93.396
7360,93.305
7362,93.151
7364,92.996
7366,92.842
7368,92.985
7370,93.127
7372,93.27
7374,93.19
7376,93.111
7378,93.031
7380,93.027
7382,93.024
7384,93.02
7386,93.007
7388,92.994
7390,92.981
7392,93.015
7394,93.048
7396,93.082
7398,93.084
7400,93.087
7402,93.089
7404,93.041
7406,92.992
7408,92.944
7410,92.827
7412,92.709
7414,92.592
7416,92.505
7418,92.418
7420,92.331
7422,92.337
7424,92.343
7426,92.349
7428,92.496
7430,92.644
7432,92.791
7434,92.883
7436,92.974
7438,93.066
7440,92.931
7442,92.797
7444,92.662
7446,92.463
7448,92.263
7450,92.064
7452,92.156
7454,92.249
7456,92.341
7458,92.274
7460,92.206
7462,92.139
7464,92.123
7466,92.108
7468,92.092
7470,92.199
7472,92.306
7474,92.413
7476,92.273
7478,92.132
7480,91.992
7482,92.027
7484,92.061
7486,92.096
7488,92.1
7490,92.103
7492,92.107
7494,91.99
7496,91.873
7498,91.756
7500,91.907
7502,92.058
7504,92.209
7506,92.08
7508,91.95
7510,91.821
7512,91.815
7514,91.808
7516,91.802
7518,91.877
7520,91.952
7522,92.027
7524,91.936
7526,91.845
7528,91.754
7530,91.668
7532,91.582
7534,91.496
7536,91.591
7538,91.687
7540,91.782
7542,91.58
7544,91.377
7546,91.175
7548,91.25
7550,91.326
7552,91.401
7554,91.349
7556,91.297
7558,91.245
7560,91.326
7562,91.408
7564,91.489
7566,91.574
7568,91.659
7570,91.744
7572,91.499
7574,91.254
7576,91.009
7578,91.053
7580,91.096
7582,91.14
7584,91.055
7586,90.969
7588,90.884
7590,90.928
7592,90.973
7594,91.017
7596,91.072
7598,91.127
7600,91.182
7602,91.203
7604,91.223
7606,91.244
7608,91.188
7610,91.133
7612,91.077
7614,91.147
7616,91.218
7618,91.288
7620,91.301
7622,91.314
7624,91.327
7626,91.286
7628,91.245
7630,91.204
7632,91.222
7634,91.239
7636,91.257
7638,91.231
7640,91.205
7642,91.179
7644,90.976
7646,90.774
7648,90.571
7650,90.827
7652,91.084
7654,91.34
7656,91.163
7658,90.987
7660,90.81
7662,90.832
7664,90.853
7666,90.875
7668,90.89
7670,90.906
7672,90.921
7674,90.792
7676,90.662
7678,90.533
7680,90.709
7682,90.885
7684,91.061
7686,90.915
7688,90.768
7690,90.622
7692,90.687
7694,90.753
7696,90.818
7698,90.803
7700,90.788
7702,90.773
7704,90.597
7706,90.421
7708,90.245
7710,90.18
7712,90.115
7714,90.05
7716,90.196
7718,90.343
7720,90.489
7722,90.413
7724,90.338
7726,90.262
7728,90.442
7730,90.621
7732,90.801
7734,90.381
7736,89.962
7738,89.542
7740,89.801
7742,90.059
7744,90.318
7746,90.323
7748,90.329
7750,90.334
7752,90.128
7754,89.922
7756,89.716
7758,89.685
7760,89.654
7762,89.623
7764,89.761
7766,89.899
7768,90.037
7770,89.982
7772,89.928
7774,89.873
7776,89.962
7778,90.051
7780,90.14
7782,90.162
7784,90.183
7786,90.205
7788,90.152
7790,90.1
7792,90.047
7794,90.046
7796,90.044
7798,90.043
7800,89.938
8100,90.975
8102,90.975
8104,90.975
8106,90.882
8108,90.788
8110,90.695
8112,90.63
8114,90.566
8116,90.501
8118,90.606
8120,90.711
8122,90.816
8124,90.588
8126,90.36
8128,90.132
8130,90.253
8132,90.373
8134,90.494
8136,90.403
8138,90.312
8140,90.221
8142,90.314
8144,90.408
8146,90.501
8148,90.366
8150,90.23
8152,90.095
8154,90.181
8156,90.268
8158,90.354
8160,90.366
8162,90.377
8164,90.389
8166,90.324
8168,90.26
8170,90.195
8172,90.191
8174,90.188
8176,90.184
8178,90.256
8180,90.328
8182,90.4
8184,90.334
8186,90.269
8188,90.203
8190,90.279
8192,90.356
8194,90.432
8196,90.178
8198,89.925
8200,89.671
8202,89.776
8204,89.88
8206,89.985
8208,89.962
8210,89.939
8212,89.916
8214,89.757
8216,89.599
8218,89.44
8220,89.524
8222,89.608
8224,89.692
8226,89.76
8228,89.828
8230,89.896
8232,89.869
8234,89.843
8236,89.816
8238,89.76
8240,89.704
8242,89.648
8244,89.649
8246,89.649
8248,89.65
8250,89.867
8252,90.083
8254,90.3
8256,90.008
8258,89.717
8260,89.425
8262,89.457
8264,89.489
8266,89.521
8268,89.582
8270,89.642
8272,89.703
8274,89.564
8276,89.424
8278,89.285
8280,89.234
8282,89.183
8284,89.132
8286,89.153
8288,89.175
8290,89.196
8292,89.275
8294,89.353
8296,89.432
8298,89.364
8300,89.295
8302,89.227
8304,89.176
8306,89.125
8308,89.074
8310,89.349
8312,89.623
8314,89.898
8316,89.866
8318,89.835
8320,89.803
8322,89.634
8324,89.464
8326,89.295
8328,89.212
8330,89.13
8332,89.047
8334,89.3
8336,89.553
8338,89.806
8340,89.755
8342,89.703
8344,89.652
8346,89.678
8348,89.705
8350,89.731
8352,89.453
8354,89.176
8356,88.898
8358,89.093
8360,89.287
8362,89.482
8364,89.361
8366,89.24
8368,89.119
8370,88.987
8372,88.856
8374,88.724
8376,88.886
8378,89.047
8380,89.209
8382,89.066
8384,88.924
8386,88.781
8388,88.851
8390,88.921
8392,88.991
8394,88.922
8396,88.852
8398,88.783
8400,88.626
8402,88.47
8404,88.313
8406,88.517
8408,88.72
8410,88.924
8412,88.806
8414,88.688
8416,88.57
8418,88.646
8420,88.722
8422,88.798
8424,88.784
8426,88.771
8428,88.757
8430,88.78
8432,88.804
8434,88.827
8436,88.876
8438,88.924
8440,88.973
8442,88.848
8444,88.723
8446,88.598
8448,88.678
8450,88.758
8452,88.838
8454,88.71
8456,88.581
8458,88.453
8460,88.506
8462,88.558
8464,88.611
8466,88.683
8468,88.756
8470,88.828
8472,88.808
8474,88.789
8476,88.769
8478,88.751
8480,88.734
8482,88.716
8484,88.424
8486,88.131
8488,87.839
8490,88.017
8492,88.195
8494,88.373
8496,88.465
8498,88.556
8500,88.648
8502,88.672
8504,88.695
8506,88.719
8508,88.536
8510,88.353
8512,88.17
8514,88.265
8516,88.359
8518,88.454
8520,88.384
8522,88.315
8524,88.245
8526,88.262
8528,88.278
8530,88.295
8532,88.196
8534,88.098
8536,87.999
8538,87.974
8540,87.95
8542,87.925
8544,87.917
8546,87.909
8548,87.901
8550,87.982
8552,88.064
8554,88.145
8556,88.188
8558,88.23
8560,88.273
8562,88.112
8564,87.951
8566,87.79
8568,87.699
8570,87.609
8572,87.518
8574,87.709
8576,87.899
8578,88.09
8580,87.933
8582,87.776
8584,87.619
8586,87.564
8588,87.509
8590,87.454
8592,87.566
8594,87.678
8596,87.79
8598,87.801
8600,87.813
8602,87.824
8604,87.774
8606,87.723
8608,87.673
8610,87.732
8612,87.79
8614,87.849
8616,87.768
8618,87.687
8620,87.606
8622,87.54
8624,87.473
8626,87.407
8628,87.425
8630,87.444
8632,87.462
8634,87.576
8636,87.689
8638,87.803
8640,87.662
8642,87.522
8644,87.381
8646,87.325
8648,87.268
8650,87.212
8652,87.241
8654,87.269
8656,87.298
8658,87.207
8660,87.116
8662,87.025
8664,87.192
8666,87.36
8668,87.527
8670,87.524
8672,87.52
8674,87.517
8676,87.354
8678,87.192
8680,87.029
8682,87.23
8684,87.431
8686,87.632
8688,87.608
8690,87.583
8692,87.559
8694,87.415
8696,87.272
8698,87.128
8700,86.952
9000,88.19
9002,88.19
9004,88.19
9006,88.413
9008,88.635
9010,88.858
9012,88.704
9014,88.55
9016,88.396
9018,88.404
9020,88.412
9022,88.42
9024,88.315
9026,88.21
9028,88.105
9030,88.206
9032,88.306
9034,88.407
9036,88.389
9038,88.371
9040,88.353
9042,88.184
9044,88.015
9046,87.846
9048,87.973
9050,88.099
9052,88.226
9054,88.147
9056,88.069
9058,87.99
9060,88.128
9062,88.267
9064,88.405
9066,88.357
9068,88.308
9070,88.26
9072,88.113
9074,87.966
9076,87.819
9078,87.95
9080,88.081
9082,88.212
9084,88.181
9086,88.15
9088,88.119
9090,88.03
9092,87.942
9094,87.853
9096,87.941
9098,88.03
9100,88.118
9102,88.059
9104,88
9106,87.941
9108,87.92
9110,87.898
9112,87.877
9114,87.829
9116,87.782
9118,87.734
9120,87.82
9122,87.907
9124,87.993
9126,87.88
9128,87.767
9130,87.654
9132,87.69
9134,87.727
9136,87.763
9138,87.78
9140,87.798
9142,87.815
9144,87.719
9146,87.623
9148,87.527
9150,87.523
9152,87.519
9154,87.515
9156,87.57
9158,87.626
9160,87.681
9162,87.548
9164,87.414
9166,87.281
9168,87.465
9170,87.648
9172,87.832
9174,87.678
9176,87.523
9178,87.369
9180,87.428
9182,87.487
9184,87.546
9186,87.533
9188,87.52
9190,87.507
9192,87.521
9194,87.536
9196,87.55
9198,87.415
9200,87.281
9202,87.146
9204,87.075
9206,87.005
9208,86.934
9210,86.948
9212,86.961
9214,86.975
9216,87.126
9218,87.276
9220,87.427
9222,87.269
9224,87.112
9226,86.954
9228,87.076
9230,87.198
9232,87.32
9234,87.164
9236,87.009
9238,86.853
9240,86.824
9242,86.796
9244,86.767
9246,86.735
9248,86.704
9250,86.672
9252,86.774
9254,86.876
9256,86.978
9258,86.968
9260,86.957
9262,86.947
9264,86.934
9266,86.922
9268,86.909
9270,86.939
9272,86.968
9274,86.998
9276,86.886
9278,86.773
9280,86.661
9282,86.711
9284,86.76
9286,86.81
9288,86.707
9290,86.603
9292,86.5
9294,86.416
9296,86.333
9298,86.249
9300,86.342
9302,86.434
9304,86.527
9306,86.422
9308,86.316
9310,86.211
9312,86.222
9314,86.233
9316,86.244
9318,86.23
9320,86.217
9322,86.203
9324,86.143
9326,86.083
9328,86.023
9330,86.131
9332,86.24
9334,86.348
9336,86.415
9338,86.482
9340,86.549
9342,86.349
9344,86.149
9346,85.949
9348,85.941
9350,85.933
9352,85.925
9354,85.887
9356,85.848
9358,85.81
9360,85.799
9362,85.787
9364,85.776
9366,85.796
9368,85.815
9370,85.835
9372,85.86
9374,85.884
9376,85.909
9378,86.007
9380,86.105
9382,86.203
9384,85.905
9386,85.607
9388,85.309
9390,85.385
9392,85.462
9394,85.538
9396,85.467
9398,85.395
9400,85.324
9402,85.451
9404,85.577
9406,85.704
9408,85.637
9410,85.571
9412,85.504
9414,85.58
9416,85.656
9418,85.732
9420,85.518
9422,85.305
9424,85.091
9426,85.158
9428,85.225
9430,85.292
9432,85.357
9434,85.423
9436,85.488
9438,85.312
9440,85.136
9442,84.96
9444,84.985
9446,85.011
9448,85.036
9450,85.162
9452,85.289
9454,85.415
9456,85.398
9458,85.381
9460,85.364
9462,85.302
9464,85.24
9466,85.178
9468,85.045
9470,84.911
9472,84.778
9474,84.777
9476,84.775
9478,84.774
9480,84.832
9482,84.891
9484,84.949
9486,84.823
9488,84.697
9490,84.571
9492,84.655
9494,84.739
9496,84.823
9498,84.86
9500,84.896
9502,84.933
9504,84.789
9506,84.646
9508,84.502
9510,84.459
9512,84.417
9514,84.374
9516,84.529
9518,84.683
9520,84.838
9522,84.908
9524,84.979
9526,85.049
9528,84.803
9530,84.558
9532,84.312
9534,84.224
9536,84.135
9538,84.047
9540,84.197
9542,84.346
9544,84.496
9546,84.393
9548,84.291
9550,84.188
9552,84.315
9554,84.442
9556,84.569
9558,84.48
9560,84.392
9562,84.303
9564,84.363
9566,84.424
9568,84.484
9570,84.448
9572,84.411
9574,84.375
9576,84.227
9578,84.08
9580,83.932
9582,83.788
9584,83.643
9586,83.499
9588,83.67
9590,83.841
9592,84.012
9594,83.885
9596,83.757
9598,83.63
9600,83.706
9900,85.611
9902,85.611
9904,85.611
9906,85.535
9908,85.459
9910,85.383
9912,85.249
9914,85.116
9916,84.982
9918,84.992
9920,85.001
9922,85.011
9924,85.087
9926,85.162
9928,85.238
9930,85.145
9932,85.053
9934,84.96
9936,85
9938,85.039
9940,85.079
9942,85.014
9944,84.948
9946,84.883
9948,84.851
9950,84.819
9952,84.787
9954,84.63
9956,84.472
9958,84.315
9960,84.501
9962,84.688
9964,84.874
9966,84.788
9968,84.702
9970,84.616
9972,84.65
9974,84.684
9976,84.718
9978,84.811
9980,84.904
9982,84.997
9984,84.993
9986,84.99
9988,84.986
9990,84.935
9992,84.884
9994,84.833
9996,85.042
9998,85.25
10000,85.459
10002,85.361
10004,85.263
10006,85.165
10008,85.025
10010,84.885
10012,84.745
10014,84.767
10016,84.789
10018,84.811
10020,84.692
10022,84.574
10024,84.455
10026,84.432
10028,84.41
10030,84.387
10032,84.266
10034,84.146
10036,84.025
10038,84.096
10040,84.166
10042,84.237
10044,84.219
10046,84.201
10048,84.183
10050,84.263
10052,84.342
10054,84.422
10056,84.425
10058,84.427
10060,84.43
10062,84.169
10064,83.907
10066,83.646
10068,83.85
10070,84.053
10072,84.257
10074,84.121
10076,83.986
10078,83.85
10080,83.998
10082,84.145
10084,84.293
10086,84.317
10088,84.34
10090,84.364
10092,84.271
10094,84.178
10096,84.085
10098,83.996
10100,83.908
10102,83.819
10104,83.837
10106,83.854
10108,83.872
10110,83.915
10112,83.957
10114,84
10116,83.976
10118,83.952
10120,83.928
10122,83.978
10124,84.029
10126,84.079
10128,84.024
10130,83.969
10132,83.914
10134,83.857
10136,83.801
10138,83.744
10140,83.658
10142,83.571
10144,83.485
10146,83.664
10148,83.843
10150,84.022
10152,83.778
10154,83.534
10156,83.29
10158,83.415
10160,83.54
10162,83.665
10164,83.684
10166,83.702
10168,83.721
10170,83.647
10172,83.574
10174,83.5
10176,83.681
10178,83.861
10180,84.042
10182,83.853
10184,83.663
10186,83.474
10188,83.288
10190,83.103
10192,82.917
10194,83.056
10196,83.194
10198,83.333
10200,83.474
10202,83.616
10204,83.757
10206,83.685
10208,83.613
10210,83.541
10212,83.417
10214,83.292
10216,83.168
10218,83.15
10220,83.133
10222,83.115
10224,83.189
10226,83.264
10228,83.338
10230,83.201
10232,83.065
10234,82.928
10236,83.011
10238,83.095
10240,83.178
10242,83.159
10244,83.14
10246,83.121
10248,82.997
10250,82.872
10252,82.748
10254,82.737
10256,82.725
10258,82.714
10260,82.76
10262,82.807
10264,82.853
10266,83.054
10268,83.255
10270,83.456
10272,83.378
10274,83.3
10276,83.222
10278,82.965
10280,82.709
10282,82.452
10284,82.648
10286,82.844
10288,83.04
10290,82.948
10292,82.856
10294,82.764
10296,82.866
10298,82.969
10300,83.071
10302,83.035
10304,83
10306,82.964
10308,83.024
10310,83.085
10312,83.145
10314,83.143
10316,83.142
10318,83.14
10320,83.227
10322,83.313
10324,83.4
10326,83.089
10328,82.779
10330,82.468
10332,82.552
10334,82.635
10336,82.719
10338,82.65
10340,82.581
10342,82.512
10344,82.393
10346,82.274
10348,82.155
10350,82.248
10352,82.34
10354,82.433
10356,82.619
10358,82.805
10360,82.991
10362,82.828
10364,82.665
10366,82.502
10368,82.427
10370,82.351
10372,82.276
10374,82.41
10376,82.545
10378,82.679
10380,82.702
10382,82.725
10384,82.748
10386,82.804
10388,82.859
10390,82.915
10392,82.709
10394,82.503
10396,82.297
10398,82.292
10400,82.287
10402,82.282
10404,82.172
10406,82.061
10408,81.951
10410,82.083
10412,82.215
10414,82.347
10416,82.344
10418,82.342
10420,82.339
10422,82.394
10424,82.45
10426,82.505
10428,82.452
10430,82.4
10432,82.347
10434,82.275
10436,82.203
10438,82.131
10440,82.088
10442,82.046
10444,82.003
10446,82
10448,81.996
10450,81.993
10452,81.987
10454,81.981
10456,81.975
10458,81.977
10460,81.979
10462,81.981
10464,82.012
10466,82.042
10468,82.073
10470,81.915
10472,81.756
10474,81.598
10476,81.711
10478,81.825
10480,81.938
10482,81.928
10484,81.919
10486,81.909
10488,81.909
10490,81.908
10492,81.908
10494,81.935
10496,81.962
10498,81.989
10500,81.936
10800,83.18
10802,83.18
10804,83.18
10806,83.241
10808,83.303
10810,83.364
10812,83.396
10814,83.428
10816,83.46
10818,83.46
10820,83.461
10822,83.461
10824,83.524
10826,83.588
10828,83.651
10830,83.528
10832,83.404
10834,83.281
10836,83.228
10838,83.174
10840,83.121
10842,83.089
10844,83.057
10846,83.025
10848,83.218
10850,83.412
10852,83.605
10854,83.407
10856,83.208
10858,83.01
10860,83.053
10862,83.096
10864,83.139
10866,83.057
10868,82.975
10870,82.893
10872,82.722
10874,82.551
10876,82.38
10878,82.475
10880,82.571
10882,82.666
10884,82.547
10886,82.427
10888,82.308
10890,82.379
10892,82.45
10894,82.521
10896,82.617
10898,82.712
10900,82.808
10902,82.786
10904,82.764
10906,82.742
10908,82.902
10910,83.062
10912,83.222
10914,83.074
10916,82.927
10918,82.779
10920,82.673
10922,82.567
10924,82.461
10926,82.515
10928,82.57
10930,82.624
10932,82.524
10934,82.424
10936,82.324
10938,82.314
10940,82.303
10942,82.293
10944,82.345
10946,82.396
10948,82.448
10950,82.434
10952,82.421
10954,82.407
10956,82.338
10958,82.269
10960,82.2
10962,82.25
10964,82.3
10966,82.35
10968,82.444
10970,82.539
10972,82.633
10974,82.416
10976,82.199
10978,81.982
10980,81.978
10982,81.973
10984,81.969
10986,82.042
10988,82.114
10990,82.187
10992,82.173
10994,82.159
10996,82.145
10998,82.065
11000,81.985
11002,81.905
11004,81.921
11006,81.938
11008,81.954
11010,82.025
11012,82.097
11014,82.168
11016,81.938
11018,81.707
11020,81.477
11022,81.528
11024,81.58
11026,81.631
11028,81.626
11030,81.622
11032,81.617
11034,81.488
11036,81.359
11038,81.23
11040,81.393
11042,81.556
11044,81.719
11046,81.521
11048,81.323
11050,81.125
11052,81.4
11054,81.676
11056,81.951
11058,81.96
11060,81.97
11062,81.979
11064,81.991
11066,82.003
11068,82.015
11070,81.925
11072,81.835
11074,81.745
11076,81.718
11078,81.691
11080,81.664
11082,81.59
11084,81.517
11086,81.443
11088,81.447
11090,81.452
11092,81.456
11094,81.397
11096,81.338
11098,81.279
11100,81.263
11102,81.248
11104,81.232
11106,81.346
11108,81.46
11110,81.574
11112,81.415
11114,81.255
11116,81.096
11118,81.071
11120,81.046
11122,81.021
11124,81.075
11126,81.128
11128,81.182
11130,81.159
11132,81.135
11134,81.112
11136,81.064
11138,81.015
11140,80.967
11142,81.047
11144,81.127
11146,81.207
11148,81.218
11150,81.229
11152,81.24
11154,81.222
11156,81.203
11158,81.185
11160,81.162
11162,81.139
11164,81.116
11166,81.226
11168,81.335
11170,81.445
11172,81.354
11174,81.262
11176,81.171
11178,81.098
11180,81.025
11182,80.952
11184,81.014
11186,81.076
11188,81.138
11190,81.069
11192,81.001
11194,80.932
11196,81.054
11198,81.177
11200,81.299
11202,81.158
11204,81.018
11206,80.877
11208,80.854
11210,80.83
11212,80.807
11214,80.818
11216,80.83
11218,80.841
11220,80.973
11222,81.105
11224,81.237
11226,81.106
11228,80.974
11230,80.843
11232,80.816
11234,80.789
11236,80.762
11238,80.734
11240,80.706
11242,80.678
11244,80.873
11246,81.067
11248,81.262
11250,81.081
11252,80.9
11254,80.719
11256,80.663
11258,80.606
11260,80.55
11262,80.477
11264,80.404
11266,80.331
11268,80.449
11270,80.567
11272,80.685
11274,80.633
11276,80.582
11278,80.53
11280,80.349
11282,80.169
11284,79.988
11286,80.023
11288,80.058
11290,80.093
11292,80.08
11294,80.067
11296,80.054
11298,80.151
11300,80.247
11302,80.344
11304,80.347
11306,80.35
11308,80.353
11310,80.215
11312,80.078
11314,79.94
11316,80.092
11318,80.245
11320,80.397
11322,80.283
11324,80.169
11326,80.055
11328,80.175
11330,80.296
11332,80.416
11334,80.36
11336,80.305
11338,80.249
11340,80.221
11342,80.192
11344,80.164
11346,79.996
11348,79.827
11350,79.659
11352,79.607
11354,79.554
11356,79.502
11358,79.64
11360,79.777
11362,79.915
11364,79.787
11366,79.66
11368,79.532
11370,79.642
11372,79.752
11374,79.862
11376,79.873
11378,79.884
11380,79.895
11382,79.868
11384,79.841
11386,79.814
11388,79.901
11390,79.988
11392,80.075
11394,79.924
11396,79.774
11398,79.623
11400,79.61
11700,80.523
11702,80.523
11704,80.523
11706,80.636
11708,80.75
11710,80.863
11712,80.826
11714,80.789
11716,80.752
11718,80.808
11720,80.864
11722,80.92
11724,80.805
11726,80.69
11728,80.575
11730,80.531
11732,80.488
11734,80.444
11736,80.383
11738,80.322
11740,80.261
11742,80.293
11744,80.325
11746,80.357
11748,80.282
11750,80.207
11752,80.132
11754,80.008
11756,79.883
11758,79.759
11760,80.048
11762,80.338
11764,80.627
11766,80.413
11768,80.199
11770,79.985
11772,79.921
11774,79.858
11776,79.794
11778,79.883
11780,79.973
11782,80.062
11784,80.154
11786,80.246
11788,80.338
11790,80.174
11792,80.009
11794,79.845
11796,80.013
11798,80.18
11800,80.348
11802,80.267
11804,80.186
11806,80.105
11808,80.162
11810,80.219
11812,80.276
11814,80.273
11816,80.271
11818,80.268
11820,80.142
11822,80.017
11824,79.891
11826,80.02
11828,80.148
11830,80.277
11832,80.153
11834,80.028
11836,79.904
11838,79.899
11840,79.894
11842,79.889
11844,79.924
11846,79.96
11848,79.995
11850,80.007
11852,80.019
11854,80.031
11856,79.885
11858,79.739
11860,79.593
11862,79.65
11864,79.707
11866,79.764
11868,79.776
11870,79.787
11872,79.799
11874,79.712
11876,79.624
11878,79.537
11880,79.545
11882,79.552
11884,79.56
11886,79.658
11888,79.757
11890,79.855
11892,79.825
11894,79.795
11896,79.765
11898,79.784
11900,79.804
11902,79.823
11904,79.756
11906,79.688
11908,79.621
11910,79.586
11912,79.551
11914,79.516
11916,79.38
11918,79.244
11920,79.108
11922,78.968
11924,78.829
11926,78.689
11928,79.119
11930,79.549
11932,79.979
11934,79.835
11936,79.69
11938,79.546
11940,79.438
11942,79.331
11944,79.223
11946,79.328
11948,79.434
11950,79.539
11952,79.43
11954,79.321
11956,79.212
11958,79.216
11960,79.219
11962,79.223
11964,79.368
11966,79.512
11968,79.657
11970,79.544
11972,79.432
11974,79.319
11976,79.196
11978,79.073
11980,78.95
11982,78.881
11984,78.813
11986,78.744
11988,78.735
11990,78.725
11992,78.716
11994,78.868
11996,79.02
11998,79.172
12000,79.293
12002,79.415
12004,79.536
12006,79.401
12008,79.266
12010,79.131
12012,79.134
12014,79.138
12016,79.141
12018,79.141
12020,79.14
12022,79.14
12024,79.145
12026,79.151
12028,79.156
12030,79.076
12032,78.995
12034,78.915
12036,78.891
12038,78.867
12040,78.843
12042,78.914
12044,78.984
12046,79.055
12048,79.025
12050,78.996
12052,78.966
12054,78.976
12056,78.987
12058,78.997
12060,78.988
12062,78.979
12064,78.97
12066,78.942
12068,78.913
12070,78.885
12072,78.821
12074,78.756
12076,78.692
12078,78.656
12080,78.621
12082,78.585
12084,78.612
12086,78.638
12088,78.665
12090,78.622
12092,78.579
12094,78.536
12096,78.587
12098,78.639
12100,78.69
12102,78.614
12104,78.537
12106,78.461
12108,78.539
12110,78.618
12112,78.696
12114,78.682
12116,78.668
12118,78.654
12120,78.741
12122,78.829
12124,78.916
12126,78.68
12128,78.444
12130,78.208
12132,78.307
12134,78.405
12136,78.504
12138,78.385
12140,78.265
12142,78.146
12144,78.254
12146,78.362
12148,78.47
12150,78.398
12152,78.325
12154,78.253
12156,78.224
12158,78.195
12160,78.166
12162,78.249
12164,78.331
12166,78.414
12168,78.359
12170,78.303
12172,78.248
12174,78.369
12176,78.491
12178,78.612
12180,78.358
12182,78.104
12184,77.85
12186,77.923
12188,77.997
12190,78.07
12192,78.022
12194,77.973
12196,77.925
12198,78.003
12200,78.08
12202,78.158
12204,78.069
12206,77.979
12208,77.89
12210,77.877
12212,77.863
12214,77.85
12216,77.833
12218,77.815
12220,77.798
12222,77.715
12224,77.633
12226,77.55
12228,77.696
12230,77.843
12232,77.989
12234,78.069
12236,78.15
12238,78.23
12240,77.914
12242,77.599
12244,77.283
12246,77.521
12248,77.759
12250,77.997
12252,77.84
12254,77.683
12256,77.526
12258,77.62
12260,77.714
12262,77.808
12264,77.716
12266,77.625
12268,77.533
12270,77.378
12272,77.223
12274,77.068
12276,77.124
12278,77.181
12280,77.237
12282,77.251
12284,77.266
12286,77.28
12288,77.386
12290,77.492
12292,77.598
12294,77.496
12296,77.394
12298,77.292
12300,77.139
12600,79.285
12602,79.285
12604,79.285
12606,79.231
12608,79.178
12610,79.124
12612,79.003
12614,78.883
12616,78.762
12618,78.814
12620,78.866
12622,78.918
12624,78.951
12626,78.985
12628,79.018
12630,78.971
12632,78.924
12634,78.877
12636,78.771
12638,78.665
12640,78.559
12642,78.634
12644,78.709
12646,78.784
12648,78.842
12650,78.9
12652,78.958
12654,78.918
12656,78.878
12658,78.838
12660,78.649
12662,78.459
12664,78.27
12666,78.32
12668,78.369
12670,78.419
12672,78.392
12674,78.364
12676,78.337
12678,78.367
12680,78.396
12682,78.426
12684,78.49
12686,78.555
12688,78.619
12690,78.522
12692,78.426
12694,78.329
12696,78.25
12698,78.171
12700,78.092
12702,78.173
12704,78.255
12706,78.336
12708,78.308
12710,78.28
12712,78.252
12714,78.341
12716,78.43
12718,78.519
12720,78.462
12722,78.405
12724,78.348
12726,78.391
12728,78.433
12730,78.476
12732,78.467
12734,78.459
12736,78.45
12738,78.423
12740,78.397
12742,78.37
12744,78.234
12746,78.097
12748,77.961
12750,78.105
12752,78.249
12754,78.393
12756,78.265
12758,78.137
12760,78.009
12762,77.869
12764,77.728
12766,77.588
12768,77.76
12770,77.931
12772,78.103
12774,78.036
12776,77.968
12778,77.901
12780,77.896
12782,77.892
12784,77.887
12786,77.883
12788,77.878
12790,77.874
12792,77.889
12794,77.903
12796,77.918
12798,77.875
12800,77.833
12802,77.79
12804,77.782
12806,77.774
12808,77.766
12810,77.805
12812,77.844
12814,77.883
12816,78.001
12818,78.118
12820,78.236
12822,78.181
12824,78.127
12826,78.072
12828,78.087
12830,78.102
12832,78.117
12834,77.993
12836,77.868
12838,77.744
12840,77.766
12842,77.788
12844,77.81
12846,77.492
12848,77.174
12850,76.856
12852,77.169
12854,77.481
12856,77.794
12858,77.879
12860,77.963
12862,78.048
12864,77.858
12866,77.668
12868,77.478
12870,77.53
12872,77.583
12874,77.635
12876,77.607
12878,77.579
12880,77.551
12882,77.567
12884,77.584
12886,77.6
12888,77.463
12890,77.327
12892,77.19
12894,77.25
12896,77.31
12898,77.37
12900,77.405
12902,77.441
12904,77.476
12906,77.361
12908,77.245
12910,77.13
12912,77.289
12914,77.447
12916,77.606
12918,77.516
12920,77.425
12922,77.335
12924,77.26
12926,77.184
12928,77.109
12930,77.147
12932,77.186
12934,77.224
12936,77.31
12938,77.395
12940,77.481
12942,77.335
12944,77.189
12946,77.043
12948,77.048
12950,77.052
12952,77.057
12954,77.073
12956,77.089
12958,77.105
12960,76.968
12962,76.831
12964,76.694
12966,76.841
12968,76.987
12970,77.134
12972,77.246
12974,77.359
12976,77.471
12978,77.323
12980,77.175
12982,77.027
12984,76.884
12986,76.741
12988,76.598
12990,76.792
12992,76.987
12994,77.181
12996,77.113
12998,77.044
13000,76.976
13002,76.946
13004,76.915
13006,76.885
13008,76.904
13010,76.924
13012,76.943
13014,76.92
13016,76.897
13018,76.874
13020,76.867
13022,76.861
13024,76.854
13026,76.758
13028,76.661
13030,76.565
13032,76.67
13034,76.775
13036,76.88
13038,76.843
13040,76.806
13042,76.769
13044,76.692
13046,76.614
13048,76.537
13050,76.616
13052,76.695
13054,76.774
13056,76.666
13058,76.559
13060,76.451
13062,76.499
13064,76.548
13066,76.596
13068,76.558
13070,76.52
13072,76.482
13074,76.361
13076,76.241
13078,76.12
13080,76.228
13082,76.337
13084,76.445
13086,76.305
13088,76.164
13090,76.024
13092,76.275
13094,76.526
13096,76.777
13098,76.677
13100,76.576
13102,76.476
13104,76.413
13106,76.349
13108,76.286
13110,76.295
13112,76.304
13114,76.313
13116,76.303
13118,76.293
13120,76.283
13122,76.192
13124,76.1
13126,76.009
13128,76.036
13130,76.063
13132,76.09
13134,76.117
13136,76.144
13138,76.171
13140,76.184
13142,76.196
13144,76.209
13146,76.179
13148,76.15
13150,76.12
13152,76.085
13154,76.051
13156,76.016
13158,75.978
13160,75.94
13162,75.902
13164,76.001
13166,76.101
13168,76.2
13170,76.257
13172,76.315
13174,76.372
13176,76.269
13178,76.166
13180,76.063
13182,76.082
13184,76.101
13186,76.12
13188,76.127
13190,76.133
13192,76.14
13194,75.982
13196,75.824
13198,75.666
13200,75.814
13500,77.389
13502,77.389
13504,77.389
13506,77.463
13508,77.536
13510,77.61
13512,77.462
13514,77.315
13516,77.167
13518,77.277
13520,77.388
13522,77.498
13524,77.393
13526,77.289
13528,77.184
13530,77.157
13532,77.129
13534,77.102
13536,77.157
13538,77.213
13540,77.268
13542,77.316
13544,77.363
13546,77.411
13548,77.273
13550,77.134
13552,76.996
13554,76.953
13556,76.911
13558,76.868
13560,76.911
13562,76.953
13564,76.996
13566,77.005
13568,77.014
13570,77.023
13572,76.894
13574,76.765
13576,76.636
13578,76.768
13580,76.899
13582,77.031
13584,77.15
13586,77.268
13588,77.387
13590,77.299
13592,77.211
13594,77.123
13596,77.064
13598,77.005
13600,76.946
13602,76.849
13604,76.751
13606,76.654
13608,76.612
13610,76.57
13612,76.528
13614,76.437
13616,76.345
13618,76.254
13620,76.333
13622,76.413
13624,76.492
13626,76.444
13628,76.396
13630,76.348
13632,76.32
13634,76.291
13636,76.263
13638,76.296
13640,76.328
13642,76.361
13644,76.352
13646,76.344
13648,76.335
13650,76.301
13652,76.266
13654,76.232
13656,76.314
13658,76.396
13660,76.478
13662,76.452
13664,76.425
13666,76.399
13668,76.471
13670,76.542
13672,76.614
13674,76.548
13676,76.481
13678,76.415
13680,76.384
13682,76.352
13684,76.321
13686,76.204
13688,76.087
13690,75.97
13692,76.02
13694,76.069
13696,76.119
13698,76.114
13700,76.109
13702,76.104
13704,75.984
13706,75.863
13708,75.743
13710,75.989
13712,76.235
13714,76.481
13716,76.386
13718,76.29
13720,76.195
13722,75.966
13724,75.738
13726,75.509
13728,75.682
13730,75.856
13732,76.029
13734,75.984
13736,75.94
13738,75.895
13740,75.82
13742,75.745
13744,75.67
13746,75.732
13748,75.794
13750,75.856
13752,75.927
13754,75.999
13756,76.07
13758,76.074
13760,76.079
13762,76.083
13764,75.986
13766,75.889
13768,75.792
13770,75.862
13772,75.933
13774,76.003
13776,75.836
13778,75.67
13780,75.503
13782,75.667
13784,75.831
13786,75.995
13788,75.905
13790,75.815
13792,75.725
13794,75.71
13796,75.695
13798,75.68
13800,75.657
13802,75.635
13804,75.612
13806,75.7
13808,75.789
13810,75.877
13812,75.877
13814,75.878
13816,75.878
13818,75.807
13820,75.735
13822,75.664
13824,75.696
13826,75.728
13828,75.76
13830,75.801
13832,75.843
13834,75.884
13836,75.833
13838,75.783
13840,75.732
13842,75.749
13844,75.766
13846,75.783
13848,75.755
13850,75.726
13852,75.698
13854,75.563
13856,75.429
13858,75.294
13860,75.386
13862,75.477
13864,75.569
13866,75.552
13868,75.535
13870,75.518
13872,75.616
13874,75.715
13876,75.813
13878,75.788
13880,75.764
13882,75.739
13884,75.787
13886,75.836
13888,75.884
13890,75.618
13892,75.352
13894,75.086
13896,75.133
13898,75.181
13900,75.228
13902,75.299
13904,75.369
13906,75.44
13908,75.49
13910,75.54
13912,75.59
13914,75.573
13916,75.555
13918,75.538
13920,75.551
13922,75.564
13924,75.577
13926,75.613
13928,75.649
13930,75.685
13932,75.515
13934,75.346
13936,75.176
13938,75.158
13940,75.139
13942,75.121
13944,75.168
13946,75.216
13948,75.263
13950,75.235
13952,75.207
13954,75.179
13956,75.279
13958,75.378
13960,75.478
13962,75.518
13964,75.557
13966,75.597
13968,75.595
13970,75.593
13972,75.591
13974,75.548
13976,75.504
13978,75.461
13980,75.361
13982,75.261
13984,75.161
13986,75.191
13988,75.221
13990,75.251
13992,75.295
13994,75.34
13996,75.384
13998,75.436
14000,75.488
14002,75.54
14004,75.504
14006,75.467
14008,75.431
14010,75.423
14012,75.416
14014,75.408
14016,75.348
14018,75.287
14020,75.227
14022,75.293
14024,75.358
14026,75.424
14028,75.414
14030,75.404
14032,75.394
14034,75.418
14036,75.441
14038,75.465
14040,75.462
14042,75.46
14044,75.457
14046,75.458
14048,75.459
14050,75.46
14052,75.267
14054,75.075
14056,74.882
14058,74.999
14060,75.115
14062,75.232
14064,75.221
14066,75.21
14068,75.199
14070,75.168
14072,75.136
14074,75.105
14076,75.065
14078,75.026
14080,74.986
14082,75.028
14084,75.07
14086,75.112
14088,75.167
14090,75.223
14092,75.278
14094,75.294
14096,75.311
14098,75.327
14100,75.251
